#isoforms=['ENSG00000101294.SE.1.A.up_ENSG00000101294.SE.1.A.SE1_ENSG00000101294.SE.1.A.dn','ENSG00000101294.SE.1.B.up_ENSG00000101294.SE.1.B.dn']	exon_lens=('ENSG00000101294.SE.1.A.up',99),('ENSG00000101294.SE.1.A.SE1',376),('ENSG00000101294.SE.1.A.dn',89),('ENSG00000101294.SE.1.B.up',99),('ENSG00000101294.SE.1.B.dn',89)	iters=5000	burn_in=500	lag=10	percent_accept=98.10	proposal_type=drift	counts=(0,0):1543,(1,0):174	assigned_counts=0:174	chrom=chr20	strand=+	mRNA_starts=31527484,31527484	mRNA_ends=31545035,31545035
sampled_psi	log_score
0.9489,0.0511	-1070.11
0.9097,0.0903	-1071.58
0.9629,0.0371	-1069.61
0.9580,0.0420	-1069.78
0.9656,0.0344	-1069.51
0.9522,0.0478	-1069.99
0.9387,0.0613	-1070.48
0.9023,0.0977	-1071.88
0.9610,0.0390	-1069.67
0.9688,0.0312	-1069.40
0.9630,0.0370	-1069.60
0.9577,0.0423	-1069.79
0.9314,0.0686	-1070.75
0.8958,0.1042	-1072.14
0.9596,0.0404	-1069.73
0.9688,0.0312	-1069.40
0.9536,0.0464	-1069.94
0.9569,0.0431	-1069.82
0.9249,0.0751	-1071.00
0.9002,0.0998	-1071.96
0.9613,0.0387	-1069.66
0.9672,0.0328	-1069.46
0.9433,0.0567	-1070.31
0.9592,0.0408	-1069.74
0.9224,0.0776	-1071.09
0.8979,0.1021	-1072.05
0.9657,0.0343	-1069.51
0.9674,0.0326	-1069.45
0.9507,0.0493	-1070.04
0.9505,0.0495	-1070.05
0.9119,0.0881	-1071.50
0.9106,0.0894	-1071.55
0.9642,0.0358	-1069.56
0.9592,0.0408	-1069.74
0.9523,0.0477	-1069.98
0.9529,0.0471	-1069.96
0.9145,0.0855	-1071.40
0.9165,0.0835	-1071.32
0.9645,0.0355	-1069.55
0.9491,0.0509	-1070.10
0.9598,0.0402	-1069.72
0.9468,0.0532	-1070.19
0.9398,0.0602	-1070.44
0.9198,0.0802	-1071.19
0.9649,0.0351	-1069.54
0.9545,0.0455	-1069.91
0.9707,0.0293	-1069.33
0.9364,0.0636	-1070.57
0.9295,0.0705	-1070.82
0.9151,0.0849	-1071.38
0.9550,0.0450	-1069.89
0.9513,0.0487	-1070.02
0.9687,0.0313	-1069.40
0.9487,0.0513	-1070.11
0.9411,0.0589	-1070.39
0.8972,0.1028	-1072.08
0.9554,0.0446	-1069.87
0.9564,0.0436	-1069.84
0.9724,0.0276	-1069.27
0.9459,0.0541	-1070.22
0.9330,0.0670	-1070.69
0.8824,0.1176	-1072.68
0.9468,0.0532	-1070.19
0.9631,0.0369	-1069.60
0.9715,0.0285	-1069.31
0.9487,0.0513	-1070.11
0.9412,0.0588	-1070.39
0.9048,0.0952	-1071.78
0.9497,0.0503	-1070.08
0.9555,0.0445	-1069.87
0.9729,0.0271	-1069.26
0.9460,0.0540	-1070.21
0.9278,0.0722	-1070.89
0.9207,0.0793	-1071.16
0.9514,0.0486	-1070.02
0.9615,0.0385	-1069.66
0.9801,0.0199	-1069.01
0.9477,0.0523	-1070.15
0.9364,0.0636	-1070.57
0.9168,0.0832	-1071.31
0.9525,0.0475	-1069.98
0.9626,0.0374	-1069.62
0.9789,0.0211	-1069.05
0.9492,0.0508	-1070.10
0.9428,0.0572	-1070.33
0.9036,0.0964	-1071.83
0.9499,0.0501	-1070.07
0.9694,0.0306	-1069.38
0.9811,0.0189	-1068.98
0.9459,0.0541	-1070.22
0.9558,0.0442	-1069.86
0.9104,0.0896	-1071.56
0.9473,0.0527	-1070.17
0.9720,0.0280	-1069.29
0.9815,0.0185	-1068.96
0.9634,0.0366	-1069.59
0.9642,0.0358	-1069.56
0.9231,0.0769	-1071.07
0.9498,0.0502	-1070.07
0.9652,0.0348	-1069.53
0.9804,0.0196	-1069.00
0.9658,0.0342	-1069.50
0.9537,0.0463	-1069.94
0.9322,0.0678	-1070.72
0.9442,0.0558	-1070.28
0.9710,0.0290	-1069.32
0.9758,0.0242	-1069.16
0.9656,0.0344	-1069.51
0.9563,0.0437	-1069.84
0.9283,0.0717	-1070.87
0.9481,0.0519	-1070.14
0.9749,0.0251	-1069.19
0.9706,0.0294	-1069.34
0.9720,0.0280	-1069.29
0.9503,0.0497	-1070.06
0.9096,0.0904	-1071.59
0.9600,0.0400	-1069.71
0.9695,0.0305	-1069.37
0.9668,0.0332	-1069.47
0.9680,0.0320	-1069.43
0.9441,0.0559	-1070.28
0.9119,0.0881	-1071.50
0.9646,0.0354	-1069.55
0.9680,0.0320	-1069.43
0.9735,0.0265	-1069.24
0.9733,0.0267	-1069.24
0.9417,0.0583	-1070.37
0.9211,0.0789	-1071.15
0.9695,0.0305	-1069.37
0.9697,0.0303	-1069.37
0.9712,0.0288	-1069.32
0.9759,0.0241	-1069.15
0.9223,0.0777	-1071.10
0.9298,0.0702	-1070.81
0.9602,0.0398	-1069.70
0.9649,0.0351	-1069.54
0.9694,0.0306	-1069.38
0.9676,0.0324	-1069.44
0.9203,0.0797	-1071.18
0.9406,0.0594	-1070.41
0.9715,0.0285	-1069.30
0.9742,0.0258	-1069.21
0.9610,0.0390	-1069.67
0.9675,0.0325	-1069.45
0.9154,0.0846	-1071.36
0.9195,0.0805	-1071.20
0.9710,0.0290	-1069.32
0.9741,0.0259	-1069.22
0.9614,0.0386	-1069.66
0.9635,0.0365	-1069.59
0.9227,0.0773	-1071.08
0.9219,0.0781	-1071.11
0.9706,0.0294	-1069.34
0.9679,0.0321	-1069.43
0.9632,0.0368	-1069.60
0.9701,0.0299	-1069.35
0.9238,0.0762	-1071.04
0.9074,0.0926	-1071.67
0.9736,0.0264	-1069.23
0.9769,0.0231	-1069.12
0.9568,0.0432	-1069.82
0.9708,0.0292	-1069.33
0.9142,0.0858	-1071.41
0.9158,0.0842	-1071.35
0.9680,0.0320	-1069.43
0.9814,0.0186	-1068.96
0.9508,0.0492	-1070.04
0.9711,0.0289	-1069.32
0.8994,0.1006	-1071.99
0.9026,0.0974	-1071.87
0.9729,0.0271	-1069.26
0.9835,0.0165	-1068.89
0.9668,0.0332	-1069.47
0.9692,0.0308	-1069.39
0.8996,0.1004	-1071.98
0.9094,0.0906	-1071.60
0.9722,0.0278	-1069.28
0.9840,0.0160	-1068.88
0.9732,0.0268	-1069.25
0.9656,0.0344	-1069.51
0.9043,0.0957	-1071.80
0.8867,0.1133	-1072.51
0.9729,0.0271	-1069.26
0.9851,0.0149	-1068.84
0.9796,0.0204	-1069.02
0.9593,0.0407	-1069.74
0.9025,0.0975	-1071.87
0.8908,0.1092	-1072.34
0.9697,0.0303	-1069.37
0.9857,0.0143	-1068.82
0.9816,0.0184	-1068.96
0.9576,0.0424	-1069.80
0.8993,0.1007	-1072.00
0.8962,0.1038	-1072.12
0.9678,0.0322	-1069.43
0.9839,0.0161	-1068.88
0.9816,0.0184	-1068.96
0.9595,0.0405	-1069.73
0.9002,0.0998	-1071.96
0.8812,0.1188	-1072.73
0.9661,0.0339	-1069.49
0.9796,0.0204	-1069.02
0.9807,0.0193	-1068.99
0.9650,0.0350	-1069.53
0.9095,0.0905	-1071.59
0.8907,0.1093	-1072.34
0.9717,0.0283	-1069.30
0.9836,0.0164	-1068.89
0.9749,0.0251	-1069.19
0.9731,0.0269	-1069.25
0.9020,0.0980	-1071.89
0.8799,0.1201	-1072.79
0.9695,0.0305	-1069.37
0.9838,0.0162	-1068.88
0.9753,0.0247	-1069.17
0.9748,0.0252	-1069.19
0.8918,0.1082	-1072.30
0.8828,0.1172	-1072.67
0.9626,0.0374	-1069.62
0.9858,0.0142	-1068.82
0.9753,0.0247	-1069.17
0.9710,0.0290	-1069.32
0.9247,0.0753	-1071.01
0.8806,0.1194	-1072.76
0.9605,0.0395	-1069.69
0.9798,0.0202	-1069.02
0.9773,0.0227	-1069.10
0.9660,0.0340	-1069.50
0.9473,0.0527	-1070.17
0.8691,0.1309	-1073.24
0.9569,0.0431	-1069.82
0.9820,0.0180	-1068.94
0.9819,0.0181	-1068.95
0.9725,0.0275	-1069.27
0.9406,0.0594	-1070.41
0.8704,0.1296	-1073.19
0.9641,0.0359	-1069.57
0.9846,0.0154	-1068.85
0.9835,0.0165	-1068.89
0.9704,0.0296	-1069.34
0.9418,0.0582	-1070.37
0.8622,0.1378	-1073.53
0.9708,0.0292	-1069.33
0.9866,0.0134	-1068.79
0.9854,0.0146	-1068.83
0.9750,0.0250	-1069.19
0.9445,0.0555	-1070.27
0.8922,0.1078	-1072.28
0.9723,0.0277	-1069.28
0.9863,0.0137	-1068.80
0.9826,0.0174	-1068.92
0.9738,0.0262	-1069.23
0.9446,0.0554	-1070.27
0.8834,0.1166	-1072.64
0.9732,0.0268	-1069.25
0.9816,0.0184	-1068.96
0.9836,0.0164	-1068.89
0.9766,0.0234	-1069.13
0.9356,0.0644	-1070.60
0.8916,0.1084	-1072.31
0.9651,0.0349	-1069.53
0.9818,0.0182	-1068.95
0.9863,0.0137	-1068.80
0.9784,0.0216	-1069.07
0.9207,0.0793	-1071.16
0.8912,0.1088	-1072.32
0.9632,0.0368	-1069.60
0.9804,0.0196	-1069.00
0.9841,0.0159	-1068.87
0.9811,0.0189	-1068.97
0.9187,0.0813	-1071.24
0.8950,0.1050	-1072.17
0.9641,0.0359	-1069.56
0.9754,0.0246	-1069.17
0.9858,0.0142	-1068.82
0.9753,0.0247	-1069.17
0.9199,0.0801	-1071.19
0.8984,0.1016	-1072.03
0.9679,0.0321	-1069.43
0.9773,0.0227	-1069.11
0.9853,0.0147	-1068.83
0.9750,0.0250	-1069.19
0.9331,0.0669	-1070.69
0.9130,0.0870	-1071.45
0.9698,0.0302	-1069.36
0.9799,0.0201	-1069.02
0.9808,0.0192	-1068.99
0.9768,0.0232	-1069.12
0.9138,0.0862	-1071.43
0.8895,0.1105	-1072.39
0.9662,0.0338	-1069.49
0.9739,0.0261	-1069.22
0.9784,0.0216	-1069.07
0.9721,0.0279	-1069.29
0.9297,0.0703	-1070.82
0.9091,0.0909	-1071.61
0.9672,0.0328	-1069.46
0.9768,0.0232	-1069.12
0.9799,0.0201	-1069.01
0.9728,0.0272	-1069.26
0.9469,0.0531	-1070.18
0.9139,0.0861	-1071.42
0.9702,0.0298	-1069.35
0.9766,0.0234	-1069.13
0.9750,0.0250	-1069.19
0.9745,0.0255	-1069.20
0.9529,0.0471	-1069.96
0.9266,0.0734	-1070.94
0.9706,0.0294	-1069.34
0.9769,0.0231	-1069.12
0.9758,0.0242	-1069.16
0.9704,0.0296	-1069.34
0.9481,0.0519	-1070.14
0.9355,0.0645	-1070.60
0.9703,0.0297	-1069.35
0.9664,0.0336	-1069.48
0.9737,0.0263	-1069.23
0.9686,0.0314	-1069.41
0.9447,0.0553	-1070.26
0.9431,0.0569	-1070.32
0.9743,0.0257	-1069.21
0.9661,0.0339	-1069.49
0.9683,0.0317	-1069.42
0.9644,0.0356	-1069.55
0.9471,0.0529	-1070.17
0.9530,0.0470	-1069.96
0.9755,0.0245	-1069.17
0.9673,0.0327	-1069.45
0.9689,0.0311	-1069.40
0.9603,0.0397	-1069.70
0.9448,0.0552	-1070.26
0.9446,0.0554	-1070.26
0.9719,0.0281	-1069.29
0.9753,0.0247	-1069.17
0.9612,0.0388	-1069.67
0.9591,0.0409	-1069.74
0.9476,0.0524	-1070.16
0.9480,0.0520	-1070.14
0.9756,0.0244	-1069.16
0.9810,0.0190	-1068.98
0.9658,0.0342	-1069.50
0.9699,0.0301	-1069.36
0.9562,0.0438	-1069.84
0.9562,0.0438	-1069.85
0.9800,0.0200	-1069.01
0.9782,0.0218	-1069.07
0.9642,0.0358	-1069.56
0.9773,0.0227	-1069.10
0.9535,0.0465	-1069.94
0.9541,0.0459	-1069.92
0.9782,0.0218	-1069.07
0.9850,0.0150	-1068.84
0.9628,0.0372	-1069.61
0.9769,0.0231	-1069.12
0.9512,0.0488	-1070.03
0.9470,0.0530	-1070.18
0.9735,0.0265	-1069.24
0.9874,0.0126	-1068.76
0.9684,0.0316	-1069.41
0.9770,0.0230	-1069.12
0.9668,0.0332	-1069.47
0.9596,0.0404	-1069.72
0.9680,0.0320	-1069.43
0.9879,0.0121	-1068.74
0.9693,0.0307	-1069.38
0.9780,0.0220	-1069.08
0.9580,0.0420	-1069.78
0.9572,0.0428	-1069.81
0.9643,0.0357	-1069.56
0.9881,0.0119	-1068.74
0.9637,0.0363	-1069.58
0.9709,0.0291	-1069.32
0.9579,0.0421	-1069.78
0.9587,0.0413	-1069.76
0.9658,0.0342	-1069.51
0.9873,0.0127	-1068.76
0.9622,0.0378	-1069.63
0.9653,0.0347	-1069.52
0.9620,0.0380	-1069.64
0.9602,0.0398	-1069.70
0.9648,0.0352	-1069.54
0.9845,0.0155	-1068.86
0.9693,0.0307	-1069.38
0.9530,0.0470	-1069.96
0.9733,0.0267	-1069.24
0.9558,0.0442	-1069.86
0.9714,0.0286	-1069.31
0.9840,0.0160	-1068.88
0.9682,0.0318	-1069.42
0.9501,0.0499	-1070.07
0.9699,0.0301	-1069.36
0.9482,0.0518	-1070.13
0.9623,0.0377	-1069.63
0.9828,0.0172	-1068.92
0.9676,0.0324	-1069.44
0.9596,0.0404	-1069.72
0.9772,0.0228	-1069.11
0.9532,0.0468	-1069.95
0.9627,0.0373	-1069.61
0.9847,0.0153	-1068.85
0.9682,0.0318	-1069.42
0.9666,0.0334	-1069.48
0.9728,0.0272	-1069.26
0.9598,0.0402	-1069.72
0.9700,0.0300	-1069.36
0.9834,0.0166	-1068.89
0.9712,0.0288	-1069.31
0.9697,0.0303	-1069.37
0.9706,0.0294	-1069.34
0.9536,0.0464	-1069.94
0.9772,0.0228	-1069.11
0.9841,0.0159	-1068.87
0.9711,0.0289	-1069.32
0.9630,0.0370	-1069.60
0.9710,0.0290	-1069.32
0.9662,0.0338	-1069.49
0.9758,0.0242	-1069.15
0.9818,0.0182	-1068.95
0.9673,0.0327	-1069.45
0.9680,0.0320	-1069.43
0.9753,0.0247	-1069.17
0.9738,0.0262	-1069.22
0.9714,0.0286	-1069.31
0.9780,0.0220	-1069.08
0.9575,0.0425	-1069.80
0.9602,0.0398	-1069.70
0.9749,0.0251	-1069.19
0.9678,0.0322	-1069.43
0.9719,0.0281	-1069.29
0.9815,0.0185	-1068.96
0.9517,0.0483	-1070.01
0.9631,0.0369	-1069.60
0.9806,0.0194	-1068.99
0.9720,0.0280	-1069.29
0.9685,0.0315	-1069.41
0.9819,0.0181	-1068.95
0.9443,0.0557	-1070.27
0.9644,0.0356	-1069.55
0.9777,0.0223	-1069.09
0.9795,0.0205	-1069.03
0.9695,0.0305	-1069.38
0.9842,0.0158	-1068.87
0.9463,0.0537	-1070.20
0.9648,0.0352	-1069.54
0.9775,0.0225	-1069.10
0.9831,0.0169	-1068.91
0.9761,0.0239	-1069.15
0.9858,0.0142	-1068.81
0.9472,0.0528	-1070.17
0.9698,0.0302	-1069.37
0.9791,0.0209	-1069.04
0.9863,0.0137	-1068.80
0.9803,0.0197	-1069.00
0.9841,0.0159	-1068.87
0.9411,0.0589	-1070.39
0.9711,0.0289	-1069.32
0.9728,0.0272	-1069.26
0.9807,0.0193	-1068.99
0.9756,0.0244	-1069.16
0.9806,0.0194	-1068.99
0.9417,0.0583	-1070.37
0.9718,0.0282	-1069.29
0.9686,0.0314	-1069.41
0.9829,0.0171	-1068.91
0.9767,0.0233	-1069.13
0.9775,0.0225	-1069.10
0.9483,0.0517	-1070.13
0.9699,0.0301	-1069.36
0.9712,0.0288	-1069.32
0.9817,0.0183	-1068.95
0.9792,0.0208	-1069.04
0.9744,0.0256	-1069.20
0.9342,0.0658	-1070.65
0.9693,0.0307	-1069.38
0.9729,0.0271	-1069.26
0.9844,0.0156	-1068.86
0.9806,0.0194	-1068.99
0.9684,0.0316	-1069.41
0.9386,0.0614	-1070.49
0.9791,0.0209	-1069.04
0.9774,0.0226	-1069.10
0.9850,0.0150	-1068.84
0.9842,0.0158	-1068.87
0.9684,0.0316	-1069.41
0.9548,0.0452	-1069.89
0.9788,0.0212	-1069.05
0.9814,0.0186	-1068.97
0.9843,0.0157	-1068.86
0.9787,0.0213	-1069.06
0.9636,0.0364	-1069.58
0.9614,0.0386	-1069.66
0.9759,0.0241	-1069.15
0.9816,0.0184	-1068.96
0.9840,0.0160	-1068.88
0.9803,0.0197	-1069.00
0.9610,0.0390	-1069.67
0.9681,0.0319	-1069.42
0.9785,0.0215	-1069.06
0.9799,0.0201	-1069.02
0.9830,0.0170	-1068.91
0.9796,0.0204	-1069.03
0.9637,0.0363	-1069.58
0.9684,0.0316	-1069.41
0.9743,0.0257	-1069.21
0.9758,0.0242	-1069.16
0.9803,0.0197	-1069.00
0.9819,0.0181	-1068.95
0.9638,0.0362	-1069.58
0.9721,0.0279	-1069.28
0.9727,0.0273	-1069.26
0.9731,0.0269	-1069.25
0.9838,0.0162	-1068.88
0.9725,0.0275	-1069.27
0.9642,0.0358	-1069.56
0.9731,0.0269	-1069.25
0.9787,0.0213	-1069.06
0.9750,0.0250	-1069.18
0.9759,0.0241	-1069.15
0.9736,0.0264	-1069.23
0.9646,0.0354	-1069.55
0.9761,0.0239	-1069.15
0.9784,0.0216	-1069.07
0.9794,0.0206	-1069.03
0.9735,0.0265	-1069.24
0.9742,0.0258	-1069.21
0.9662,0.0338	-1069.49
0.9765,0.0235	-1069.13
0.9780,0.0220	-1069.08
0.9795,0.0205	-1069.03
0.9651,0.0349	-1069.53
0.9736,0.0264	-1069.23
0.9715,0.0285	-1069.30
0.9784,0.0216	-1069.07
0.9764,0.0236	-1069.14
0.9717,0.0283	-1069.30
0.9681,0.0319	-1069.42
0.9674,0.0326	-1069.45
0.9778,0.0222	-1069.09
0.9756,0.0244	-1069.16
0.9664,0.0336	-1069.48
0.9740,0.0260	-1069.22
0.9688,0.0312	-1069.40
0.9674,0.0326	-1069.45
0.9783,0.0217	-1069.07
0.9756,0.0244	-1069.16
0.9711,0.0289	-1069.32
0.9700,0.0300	-1069.36
0.9634,0.0366	-1069.59
0.9645,0.0355	-1069.55
0.9758,0.0242	-1069.16
0.9737,0.0263	-1069.23
0.9746,0.0254	-1069.20
0.9721,0.0279	-1069.29
0.9607,0.0393	-1069.68
0.9743,0.0257	-1069.21
0.9791,0.0209	-1069.04
0.9679,0.0321	-1069.43
0.9786,0.0214	-1069.06
0.9758,0.0242	-1069.16
0.9615,0.0385	-1069.65
0.9777,0.0223	-1069.09
0.9811,0.0189	-1068.97
0.9691,0.0309	-1069.39
0.9758,0.0242	-1069.16
0.9776,0.0224	-1069.09
0.9697,0.0303	-1069.37
0.9816,0.0184	-1068.96
0.9793,0.0207	-1069.04
0.9669,0.0331	-1069.47
0.9740,0.0260	-1069.22
0.9779,0.0221	-1069.08
0.9761,0.0239	-1069.15
0.9768,0.0232	-1069.12
0.9799,0.0201	-1069.02
0.9657,0.0343	-1069.51
0.9762,0.0238	-1069.14
0.9772,0.0228	-1069.11
0.9761,0.0239	-1069.15
0.9766,0.0234	-1069.13
0.9808,0.0192	-1068.98
0.9684,0.0316	-1069.41
0.9712,0.0288	-1069.32
0.9746,0.0254	-1069.20
0.9782,0.0218	-1069.07
0.9838,0.0162	-1068.88
0.9820,0.0180	-1068.95
0.9623,0.0377	-1069.63
0.9641,0.0359	-1069.56
0.9710,0.0290	-1069.32
0.9816,0.0184	-1068.96
0.9835,0.0165	-1068.89
0.9850,0.0150	-1068.84
0.9664,0.0336	-1069.48
0.9634,0.0366	-1069.59
0.9645,0.0355	-1069.55
0.9762,0.0238	-1069.14
0.9808,0.0192	-1068.99
0.9835,0.0165	-1068.89
0.9592,0.0408	-1069.74
0.9672,0.0328	-1069.46
0.9746,0.0254	-1069.20
0.9757,0.0243	-1069.16
0.9805,0.0195	-1069.00
0.9794,0.0206	-1069.03
0.9537,0.0463	-1069.94
0.9691,0.0309	-1069.39
0.9814,0.0186	-1068.96
0.9757,0.0243	-1069.16
0.9818,0.0182	-1068.95
0.9774,0.0226	-1069.10
0.9464,0.0536	-1070.20
0.9714,0.0286	-1069.31
0.9754,0.0246	-1069.17
0.9755,0.0245	-1069.17
0.9789,0.0211	-1069.05
0.9738,0.0262	-1069.22
0.9588,0.0412	-1069.75
0.9711,0.0289	-1069.32
0.9806,0.0194	-1068.99
0.9696,0.0304	-1069.37
0.9788,0.0212	-1069.05
0.9761,0.0239	-1069.15
0.9681,0.0319	-1069.42
0.9789,0.0211	-1069.05
0.9845,0.0155	-1068.86
0.9674,0.0326	-1069.45
0.9845,0.0155	-1068.86
0.9817,0.0183	-1068.95
0.9619,0.0381	-1069.64
0.9773,0.0227	-1069.10
0.9832,0.0168	-1068.90
0.9671,0.0329	-1069.46
0.9823,0.0177	-1068.93
0.9813,0.0187	-1068.97
0.9506,0.0494	-1070.05
0.9781,0.0219	-1069.08
0.9799,0.0201	-1069.02
0.9679,0.0321	-1069.43
0.9761,0.0239	-1069.15
0.9835,0.0165	-1068.89
0.9432,0.0568	-1070.31
0.9813,0.0187	-1068.97
0.9767,0.0233	-1069.12
0.9737,0.0263	-1069.23
0.9786,0.0214	-1069.06
0.9841,0.0159	-1068.87
0.9494,0.0506	-1070.09
0.9846,0.0154	-1068.86
0.9808,0.0192	-1068.98
0.9723,0.0277	-1069.28
0.9800,0.0200	-1069.01
0.9859,0.0141	-1068.81
0.9545,0.0455	-1069.90
0.9843,0.0157	-1068.87
0.9807,0.0193	-1068.99
0.9802,0.0198	-1069.01
0.9817,0.0183	-1068.96
0.9852,0.0148	-1068.83
0.9616,0.0384	-1069.65
0.9826,0.0174	-1068.92
0.9821,0.0179	-1068.94
0.9802,0.0198	-1069.01
0.9838,0.0162	-1068.88
0.9810,0.0190	-1068.98
0.9571,0.0429	-1069.81
0.9844,0.0156	-1068.86
0.9855,0.0145	-1068.83
0.9728,0.0272	-1069.26
0.9813,0.0187	-1068.97
0.9807,0.0193	-1068.99
0.9590,0.0410	-1069.75
0.9834,0.0166	-1068.90
0.9813,0.0187	-1068.97
0.9780,0.0220	-1069.08
0.9810,0.0190	-1068.98
0.9811,0.0189	-1068.97
0.9581,0.0419	-1069.78
0.9830,0.0170	-1068.91
0.9803,0.0197	-1069.00
0.9755,0.0245	-1069.17
0.9795,0.0205	-1069.03
0.9825,0.0175	-1068.93
0.9558,0.0442	-1069.86
0.9830,0.0170	-1068.91
0.9803,0.0197	-1069.00
0.9762,0.0238	-1069.14
0.9789,0.0211	-1069.05
0.9820,0.0180	-1068.94
0.9496,0.0504	-1070.08
0.9858,0.0142	-1068.81
0.9802,0.0198	-1069.00
0.9787,0.0213	-1069.06
0.9759,0.0241	-1069.15
0.9817,0.0183	-1068.95
0.9455,0.0545	-1070.23
0.9829,0.0171	-1068.91
0.9781,0.0219	-1069.08
0.9785,0.0215	-1069.06
0.9787,0.0213	-1069.06
0.9842,0.0158	-1068.87
0.9521,0.0479	-1069.99
0.9837,0.0163	-1068.89
0.9738,0.0262	-1069.23
0.9788,0.0212	-1069.05
0.9828,0.0172	-1068.92
0.9815,0.0185	-1068.96
0.9489,0.0511	-1070.11
0.9793,0.0207	-1069.04
0.9755,0.0245	-1069.17
0.9782,0.0218	-1069.07
0.9820,0.0180	-1068.94
0.9788,0.0212	-1069.05
0.9502,0.0498	-1070.06
0.9773,0.0227	-1069.10
0.9777,0.0223	-1069.09
0.9821,0.0179	-1068.94
0.9847,0.0153	-1068.85
0.9772,0.0228	-1069.11
0.9591,0.0409	-1069.74
0.9683,0.0317	-1069.42
0.9797,0.0203	-1069.02
0.9800,0.0200	-1069.01
0.9825,0.0175	-1068.93
0.9789,0.0211	-1069.05
0.9612,0.0388	-1069.67
0.9690,0.0310	-1069.39
0.9786,0.0214	-1069.06
0.9802,0.0198	-1069.01
0.9813,0.0187	-1068.97
0.9725,0.0275	-1069.27
0.9638,0.0362	-1069.58
0.9785,0.0215	-1069.06
0.9797,0.0203	-1069.02
0.9785,0.0215	-1069.06
0.9789,0.0211	-1069.05
0.9719,0.0281	-1069.29
0.9726,0.0274	-1069.27
0.9773,0.0227	-1069.11
0.9845,0.0155	-1068.86
0.9771,0.0229	-1069.11
0.9760,0.0240	-1069.15
0.9730,0.0270	-1069.25
0.9735,0.0265	-1069.24
0.9803,0.0197	-1069.00
0.9886,0.0114	-1068.72
0.9804,0.0196	-1069.00
0.9770,0.0230	-1069.12
0.9725,0.0275	-1069.27
0.9764,0.0236	-1069.14
0.9785,0.0215	-1069.06
0.9891,0.0109	-1068.70
0.9819,0.0181	-1068.95
0.9805,0.0195	-1068.99
0.9765,0.0235	-1069.13
0.9782,0.0218	-1069.07
0.9772,0.0228	-1069.11
0.9878,0.0122	-1068.75
0.9826,0.0174	-1068.92
0.9795,0.0205	-1069.03
0.9771,0.0229	-1069.11
0.9725,0.0275	-1069.27
0.9798,0.0202	-1069.02
0.9857,0.0143	-1068.82
0.9808,0.0192	-1068.98
0.9834,0.0166	-1068.90
0.9794,0.0206	-1069.03
0.9727,0.0273	-1069.26
0.9742,0.0258	-1069.21
0.9847,0.0153	-1068.85
0.9822,0.0178	-1068.94
0.9843,0.0157	-1068.87
0.9786,0.0214	-1069.06
0.9715,0.0285	-1069.31
0.9692,0.0308	-1069.39
0.9860,0.0140	-1068.81
0.9801,0.0199	-1069.01
0.9845,0.0155	-1068.86
0.9737,0.0263	-1069.23
0.9770,0.0230	-1069.12
0.9719,0.0281	-1069.29
0.9875,0.0125	-1068.76
0.9763,0.0237	-1069.14
0.9871,0.0129	-1068.77
0.9751,0.0249	-1069.18
0.9762,0.0238	-1069.14
0.9667,0.0333	-1069.47
0.9829,0.0171	-1068.91
0.9730,0.0270	-1069.25
0.9861,0.0139	-1068.80
0.9714,0.0286	-1069.31
0.9757,0.0243	-1069.16
0.9718,0.0282	-1069.30
0.9784,0.0216	-1069.07
0.9719,0.0281	-1069.29
0.9889,0.0111	-1068.71
0.9667,0.0333	-1069.47
0.9691,0.0309	-1069.39
0.9684,0.0316	-1069.41
0.9785,0.0215	-1069.06
0.9698,0.0302	-1069.36
0.9886,0.0114	-1068.72
0.9634,0.0366	-1069.59
0.9673,0.0327	-1069.45
0.9773,0.0227	-1069.10
0.9738,0.0262	-1069.23
0.9712,0.0288	-1069.32
0.9902,0.0098	-1068.66
0.9541,0.0459	-1069.92
0.9608,0.0392	-1069.68
0.9780,0.0220	-1069.08
0.9739,0.0261	-1069.22
0.9696,0.0304	-1069.37
0.9911,0.0089	-1068.64
0.9541,0.0459	-1069.92
0.9487,0.0513	-1070.11
0.9812,0.0188	-1068.97
0.9783,0.0217	-1069.07
0.9662,0.0338	-1069.49
0.9927,0.0073	-1068.58
0.9474,0.0526	-1070.16
0.9542,0.0458	-1069.92
0.9793,0.0207	-1069.04
0.9793,0.0207	-1069.04
0.9682,0.0318	-1069.42
0.9922,0.0078	-1068.60
0.9421,0.0579	-1070.36
0.9534,0.0466	-1069.95
0.9805,0.0195	-1068.99
0.9760,0.0240	-1069.15
0.9535,0.0465	-1069.94
0.9906,0.0094	-1068.65
0.9513,0.0487	-1070.02
0.9545,0.0455	-1069.91
0.9797,0.0203	-1069.02
0.9719,0.0281	-1069.29
0.9510,0.0490	-1070.03
0.9927,0.0073	-1068.58
0.9439,0.0561	-1070.29
0.9599,0.0401	-1069.71
0.9775,0.0225	-1069.10
0.9630,0.0370	-1069.60
0.9466,0.0534	-1070.19
0.9944,0.0056	-1068.53
0.9360,0.0640	-1070.58
0.9552,0.0448	-1069.88
