#isoforms=['ENSG00000211445.SE.0.A.up_ENSG00000211445.SE.0.A.SE1_ENSG00000211445.SE.0.A.dn','ENSG00000211445.SE.0.B.up_ENSG00000211445.SE.0.B.dn']	exon_lens=('ENSG00000211445.SE.0.A.up',136),('ENSG00000211445.SE.0.A.SE1',426),('ENSG00000211445.SE.0.A.dn',154),('ENSG00000211445.SE.0.B.up',179),('ENSG00000211445.SE.0.B.dn',154)	iters=5000	burn_in=500	lag=10	percent_accept=96.03	proposal_type=drift	counts=(0,0):23,(0,1):2,(1,0):3,(1,1):31	assigned_counts=0:5,1:31	chrom=chr5	strand=+	mRNA_starts=151020606,151020563	mRNA_ends=151025493,151025493
sampled_psi	log_score
0.2291,0.7709	-235.89
0.0744,0.9256	-236.38
0.2106,0.7894	-234.12
0.0537,0.9463	-223.83
0.1222,0.8778	-226.87
0.0777,0.9223	-223.80
0.2669,0.7331	-241.04
0.0728,0.9272	-223.76
0.2220,0.7780	-236.96
0.0619,0.9381	-221.02
0.1468,0.8532	-225.83
0.0779,0.9221	-223.81
0.2673,0.7327	-233.98
0.0642,0.9358	-226.41
0.2322,0.7678	-234.77
0.0734,0.9266	-223.76
0.1695,0.8305	-237.95
0.0722,0.9278	-223.75
0.2740,0.7260	-238.20
0.0785,0.9215	-221.35
0.2318,0.7682	-238.35
0.0767,0.9233	-228.77
0.1856,0.8144	-242.37
0.0853,0.9147	-228.66
0.3005,0.6995	-240.70
0.0875,0.9125	-221.61
0.1570,0.8430	-234.67
0.0682,0.9318	-226.35
0.1577,0.8423	-234.67
0.0589,0.9411	-226.53
0.3079,0.6921	-235.21
0.0680,0.9320	-226.35
0.1508,0.8492	-226.00
0.0848,0.9152	-221.53
0.1604,0.8396	-234.69
0.0813,0.9187	-228.70
0.2989,0.7011	-241.52
0.0582,0.9418	-223.77
0.1382,0.8618	-225.49
0.0674,0.9326	-228.99
0.1745,0.8255	-231.72
0.0899,0.9101	-228.63
0.3047,0.6953	-239.15
0.0639,0.9361	-221.05
0.1211,0.8789	-224.86
0.0846,0.9154	-223.90
0.1545,0.8455	-231.25
0.0859,0.9141	-223.92
0.2933,0.7067	-237.90
0.0560,0.9440	-226.62
0.1422,0.8578	-227.44
0.0840,0.9160	-228.67
0.1683,0.8317	-231.56
0.0840,0.9160	-228.67
0.3007,0.6993	-240.71
0.0538,0.9462	-226.69
0.1495,0.8505	-238.11
0.1015,0.8985	-228.63
0.1578,0.8422	-226.30
0.0999,0.9001	-224.22
0.2943,0.7057	-237.94
0.0485,0.9515	-223.94
0.1640,0.8360	-234.72
0.1057,0.8943	-226.51
0.1410,0.8590	-229.21
0.0868,0.9132	-221.58
0.2452,0.7548	-235.21
0.0401,0.9599	-221.08
0.1732,0.8268	-231.68
0.0902,0.9098	-219.38
0.1477,0.8523	-232.88
0.0984,0.9016	-221.97
0.2913,0.7087	-239.61
0.0406,0.9594	-221.07
0.1715,0.8285	-236.36
0.0870,0.9130	-221.59
0.1732,0.8268	-228.56
0.1164,0.8836	-228.76
0.2633,0.7367	-239.97
0.0402,0.9598	-221.08
0.1482,0.8518	-231.14
0.0868,0.9132	-221.59
0.1960,0.8040	-237.97
0.1082,0.8918	-230.78
0.2492,0.7508	-239.75
0.0386,0.9614	-221.12
0.1617,0.8383	-229.76
0.0778,0.9222	-223.81
0.2124,0.7876	-236.80
0.0916,0.9084	-221.74
0.2311,0.7689	-237.14
0.0370,0.9630	-217.90
0.1545,0.8455	-231.26
0.0847,0.9153	-221.52
0.2249,0.7751	-228.36
0.0871,0.9129	-233.34
0.1996,0.8004	-233.83
0.0391,0.9609	-224.31
0.1501,0.8499	-225.97
0.0821,0.9179	-223.86
0.2406,0.7594	-238.50
0.0941,0.9059	-221.82
0.2004,0.7996	-236.62
0.0387,0.9613	-217.90
0.1626,0.8374	-228.15
0.0820,0.9180	-228.69
0.2046,0.7954	-236.68
0.1111,0.8889	-226.62
0.2032,0.7968	-235.29
0.0420,0.9580	-221.04
0.1596,0.8404	-229.70
0.1029,0.8971	-224.30
0.1841,0.8159	-230.49
0.1188,0.8812	-226.79
0.1751,0.8249	-236.38
0.0492,0.9508	-218.00
0.1185,0.8815	-230.79
0.0811,0.9189	-231.13
0.1818,0.8182	-234.92
0.1117,0.8883	-222.48
0.1604,0.8396	-231.38
0.0528,0.9472	-223.85
0.1175,0.8825	-224.74
0.0859,0.9141	-226.29
0.1633,0.8367	-234.71
0.1165,0.8835	-236.86
0.1861,0.8139	-236.46
0.0515,0.9485	-218.05
0.0996,0.9004	-222.02
0.1009,0.8991	-224.25
0.1645,0.8355	-231.47
0.1086,0.8914	-226.57
0.1603,0.8397	-229.72
0.0540,0.9460	-220.96
0.0962,0.9038	-224.13
0.0994,0.9006	-226.42
0.1994,0.8006	-229.65
0.0975,0.9025	-226.39
0.1928,0.8072	-230.80
0.0622,0.9378	-221.03
0.0929,0.9071	-228.62
0.0915,0.9085	-228.62
0.1835,0.8165	-233.45
0.0925,0.9075	-224.05
0.1914,0.8086	-233.63
0.0738,0.9262	-226.30
0.0894,0.9106	-228.63
0.0952,0.9048	-230.87
0.1446,0.8554	-232.85
0.0942,0.9058	-226.35
0.1764,0.8236	-227.14
0.0751,0.9249	-223.78
0.0974,0.9026	-221.94
0.1028,0.8972	-228.63
0.1480,0.8520	-231.13
0.1016,0.8984	-228.63
0.1532,0.8468	-232.94
0.0825,0.9175	-226.28
0.0893,0.9107	-223.99
0.0898,0.9102	-226.31
0.1538,0.8462	-224.42
0.0832,0.9168	-219.08
0.1861,0.8139	-236.46
0.0844,0.9156	-219.13
0.1088,0.8912	-224.47
0.0861,0.9139	-228.65
0.1854,0.8146	-233.49
0.0649,0.9351	-229.07
0.1978,0.8022	-233.78
0.0998,0.9002	-228.62
0.1221,0.8779	-224.90
0.1014,0.8986	-230.81
0.1935,0.8065	-236.53
0.0811,0.9189	-223.85
0.1469,0.8531	-229.35
0.0912,0.9088	-228.62
0.1598,0.8402	-231.36
0.1170,0.8830	-228.77
0.1879,0.8121	-229.16
0.0903,0.9097	-233.24
0.1211,0.8789	-224.86
0.0692,0.9308	-223.74
0.1179,0.8821	-226.77
0.1406,0.8594	-223.77
0.1804,0.8196	-237.93
0.1110,0.8890	-222.45
0.1320,0.8680	-227.13
0.0656,0.9344	-223.73
0.1372,0.8628	-227.29
0.1074,0.8926	-224.43
0.1561,0.8439	-226.22
0.1131,0.8869	-222.54
0.1511,0.8489	-231.19
0.0810,0.9190	-223.85
0.1696,0.8304	-231.59
0.1034,0.8966	-230.80
0.1655,0.8345	-233.11
0.1304,0.8696	-230.88
0.1422,0.8578	-229.24
0.0765,0.9235	-223.79
0.1818,0.8182	-228.90
0.1206,0.8794	-230.80
0.1856,0.8144	-230.54
0.1507,0.8493	-239.83
0.1393,0.8607	-225.53
0.0946,0.9054	-228.61
0.1916,0.8084	-237.95
0.1263,0.8737	-226.98
0.2223,0.7777	-235.72
0.1321,0.8679	-227.14
0.1380,0.8620	-230.98
0.0828,0.9172	-226.28
0.1971,0.8029	-236.58
0.1176,0.8824	-224.74
0.2062,0.7938	-236.70
0.1586,0.8414	-233.01
0.1146,0.8854	-232.83
0.0809,0.9191	-221.42
0.1801,0.8199	-236.41
0.1068,0.8932	-224.41
0.2205,0.7795	-238.20
0.1450,0.8550	-238.18
0.1338,0.8662	-225.32
0.0654,0.9346	-223.73
0.1724,0.8276	-237.94
0.0992,0.9008	-228.62
0.2253,0.7747	-238.26
0.1547,0.8453	-232.96
0.1207,0.8793	-226.83
0.0657,0.9343	-221.08
0.1448,0.8552	-232.85
0.0819,0.9181	-231.11
0.2266,0.7734	-232.14
0.1457,0.8543	-232.86
0.1412,0.8588	-225.61
0.0764,0.9236	-228.78
0.1500,0.8500	-227.70
0.0833,0.9167	-228.68
0.2060,0.7940	-232.65
0.1089,0.8911	-226.57
0.1689,0.8311	-229.98
0.0801,0.9199	-221.39
0.1609,0.8391	-233.04
0.0590,0.9410	-218.23
0.1788,0.8212	-227.26
0.1079,0.8921	-237.12
0.1427,0.8573	-225.67
0.0774,0.9226	-226.28
0.1845,0.8155	-233.47
0.0660,0.9340	-218.43
0.1866,0.8134	-232.05
0.0959,0.9041	-224.13
0.1498,0.8502	-236.37
0.0806,0.9194	-228.71
0.2018,0.7982	-236.64
0.0790,0.9210	-231.19
0.1866,0.8134	-232.05
0.0931,0.9069	-226.34
0.1702,0.8298	-226.86
0.0691,0.9309	-223.74
0.2115,0.7885	-240.73
0.0724,0.9276	-226.31
0.1509,0.8491	-236.37
0.0829,0.9171	-226.28
0.2109,0.7891	-232.81
0.0675,0.9325	-228.99
0.1987,0.8013	-231.02
0.0802,0.9198	-231.15
0.1887,0.8113	-239.40
0.0803,0.9197	-226.27
0.2264,0.7736	-237.05
0.0610,0.9390	-221.01
0.1952,0.8048	-235.14
0.0799,0.9201	-223.83
0.1429,0.8571	-227.47
0.0905,0.9095	-226.32
0.2043,0.7957	-238.03
0.0548,0.9452	-232.36
0.1764,0.8236	-236.39
0.0627,0.9373	-226.45
0.1503,0.8497	-229.44
0.0799,0.9201	-221.39
0.1524,0.8476	-231.21
0.0433,0.9567	-221.02
0.1623,0.8377	-233.06
0.0606,0.9394	-221.01
0.1323,0.8677	-227.14
0.1026,0.8974	-226.46
0.1417,0.8583	-225.63
0.0606,0.9394	-223.75
0.1414,0.8586	-229.22
0.0501,0.9499	-220.96
0.1080,0.8920	-226.56
0.0984,0.9016	-233.05
0.1492,0.8508	-234.64
0.0747,0.9253	-223.77
0.1200,0.8800	-226.82
0.0578,0.9422	-223.77
0.1041,0.8959	-224.34
0.0875,0.9125	-223.95
0.1356,0.8644	-232.80
0.0687,0.9313	-218.52
0.1540,0.8460	-234.65
0.0560,0.9440	-220.97
0.0722,0.9278	-221.20
0.0875,0.9125	-226.30
0.1369,0.8631	-223.60
0.0659,0.9341	-229.04
0.1870,0.8130	-232.06
0.0519,0.9481	-226.77
0.1110,0.8890	-230.78
0.0618,0.9382	-223.74
0.1169,0.8831	-222.70
0.0848,0.9152	-223.90
0.1846,0.8154	-233.48
0.0471,0.9529	-223.99
0.0937,0.9063	-226.35
0.0557,0.9443	-223.80
0.0977,0.9023	-224.17
0.1075,0.8925	-235.01
0.1561,0.8439	-234.66
0.0394,0.9606	-217.90
0.0946,0.9054	-224.10
0.0548,0.9452	-223.81
0.1123,0.8877	-239.05
0.1030,0.8970	-222.14
0.2112,0.7888	-234.14
0.0397,0.9603	-217.90
0.1006,0.8994	-228.62
0.0823,0.9177	-228.69
0.1240,0.8760	-230.83
0.0892,0.9108	-228.63
0.2050,0.7950	-235.33
0.0463,0.9537	-224.01
0.0901,0.9099	-226.31
0.1127,0.8873	-222.52
0.0948,0.9052	-226.36
0.1033,0.8967	-226.47
0.2181,0.7819	-227.95
0.0453,0.9547	-224.04
0.1030,0.8970	-222.14
0.1001,0.8999	-228.62
0.0801,0.9199	-218.95
0.1401,0.8599	-236.45
0.2012,0.7988	-235.25
0.0510,0.9490	-223.88
0.1057,0.8943	-230.79
0.1151,0.8849	-228.74
0.0936,0.9064	-226.34
0.1338,0.8662	-229.05
0.1845,0.8155	-231.99
0.0623,0.9377	-221.03
0.1091,0.8909	-222.38
0.1069,0.8931	-232.91
0.0974,0.9026	-226.39
0.1634,0.8366	-228.18
0.2191,0.7809	-236.91
0.0596,0.9404	-226.52
0.1033,0.8967	-228.64
0.1158,0.8842	-226.72
0.1071,0.8929	-224.42
0.1631,0.8369	-224.90
0.2336,0.7664	-237.19
0.0572,0.9428	-223.78
0.0945,0.9055	-230.87
0.1402,0.8598	-234.63
0.0979,0.9021	-226.40
0.1523,0.8477	-226.06
0.2067,0.7933	-236.71
0.0535,0.9465	-226.71
0.0838,0.9162	-226.28
0.1576,0.8424	-236.35
0.0918,0.9082	-228.62
0.1358,0.8642	-225.39
0.1833,0.8167	-228.97
0.0473,0.9527	-217.97
0.0792,0.9208	-226.28
0.1507,0.8493	-229.45
0.0873,0.9127	-223.95
0.1332,0.8668	-229.04
0.1632,0.8368	-229.81
0.0434,0.9566	-217.93
0.0862,0.9138	-226.29
0.1400,0.8600	-232.82
0.0946,0.9054	-226.36
0.1522,0.8478	-227.78
0.1754,0.8246	-231.74
0.0483,0.9517	-220.97
0.0857,0.9143	-223.92
0.1287,0.8713	-228.95
0.1024,0.8976	-226.46
0.1508,0.8492	-232.91
0.1741,0.8259	-228.59
0.0440,0.9560	-217.93
0.0765,0.9235	-221.30
0.1701,0.8299	-233.19
0.1200,0.8800	-228.81
0.1532,0.8468	-236.36
0.1835,0.8165	-230.47
0.0426,0.9574	-227.25
0.0615,0.9385	-218.29
0.1524,0.8476	-232.93
0.1107,0.8893	-224.52
0.1288,0.8712	-223.22
0.1739,0.8261	-231.70
0.0425,0.9575	-224.15
0.0717,0.9283	-228.87
0.1308,0.8692	-234.67
0.1075,0.8925	-228.66
0.0990,0.9010	-224.20
0.1960,0.8040	-232.33
0.0437,0.9563	-227.18
0.0728,0.9272	-223.76
0.1211,0.8789	-228.83
0.0902,0.9098	-230.94
0.1069,0.8931	-228.66
0.1776,0.8224	-231.80
0.0636,0.9364	-221.05
0.0748,0.9252	-231.32
0.1505,0.8495	-232.91
0.0921,0.9079	-221.75
0.1362,0.8638	-229.10
0.1463,0.8537	-225.81
0.0579,0.9421	-226.56
0.0842,0.9158	-221.51
0.1563,0.8437	-232.98
0.0819,0.9181	-226.28
0.1450,0.8550	-232.86
0.1465,0.8535	-225.82
0.0517,0.9483	-220.96
0.0926,0.9074	-228.62
0.1682,0.8318	-229.96
0.0895,0.9105	-230.95
0.1686,0.8314	-229.97
0.1428,0.8572	-231.05
0.0426,0.9574	-217.92
0.0751,0.9249	-236.33
0.1537,0.8463	-232.95
0.1082,0.8918	-228.67
0.2006,0.7994	-228.33
0.1436,0.8564	-227.49
0.0480,0.9520	-223.96
0.0762,0.9238	-221.29
0.1337,0.8663	-236.53
0.1186,0.8814	-228.79
0.1116,0.8884	-228.70
0.1291,0.8709	-228.96
0.0520,0.9480	-220.96
0.0670,0.9330	-221.10
0.0994,0.9006	-228.62
0.1105,0.8895	-228.69
0.0976,0.9024	-224.17
0.1214,0.8786	-224.87
0.0455,0.9545	-230.12
0.0667,0.9333	-218.46
0.1294,0.8706	-230.87
0.1195,0.8805	-230.80
0.1045,0.8955	-222.20
0.1183,0.8817	-232.80
0.0481,0.9519	-220.97
0.0716,0.9284	-221.19
0.1310,0.8690	-225.21
0.0969,0.9031	-226.38
0.1301,0.8699	-228.98
0.1124,0.8876	-228.71
0.0425,0.9575	-221.03
0.0904,0.9096	-226.32
0.1402,0.8598	-231.01
0.1370,0.8630	-232.80
0.1311,0.8689	-236.56
0.1168,0.8832	-230.79
0.0436,0.9564	-227.19
0.1086,0.8914	-226.57
0.1141,0.8859	-228.73
0.1423,0.8577	-225.65
0.1409,0.8591	-231.02
0.1314,0.8686	-234.67
0.0385,0.9615	-217.90
0.1231,0.8769	-224.93
0.1071,0.8929	-228.66
0.1666,0.8334	-234.74
0.1347,0.8653	-230.93
0.1206,0.8794	-230.80
0.0487,0.9513	-226.91
0.1178,0.8822	-224.75
0.1180,0.8820	-228.78
0.1764,0.8236	-231.77
0.1559,0.8441	-231.28
0.1158,0.8842	-236.88
0.0375,0.9625	-217.90
0.0990,0.9010	-233.04
0.1045,0.8955	-228.64
0.1857,0.8143	-232.02
0.1904,0.8096	-232.16
0.1168,0.8832	-224.72
0.0357,0.9643	-217.91
0.0902,0.9098	-226.31
0.0889,0.9111	-219.32
0.1579,0.8421	-229.65
0.1589,0.8411	-229.68
0.0972,0.9028	-226.39
0.0284,0.9716	-225.08
0.0830,0.9170	-219.07
0.0859,0.9141	-233.38
0.1375,0.8625	-229.13
0.1442,0.8558	-225.73
0.0727,0.9273	-221.21
0.0245,0.9755	-221.84
0.1009,0.8991	-226.44
0.0897,0.9103	-221.67
0.1153,0.8847	-220.59
0.1466,0.8534	-225.82
0.0778,0.9222	-223.81
0.0289,0.9711	-221.52
0.1074,0.8926	-224.43
0.0764,0.9236	-223.79
0.0958,0.9042	-228.61
0.1151,0.8849	-226.70
0.0961,0.9039	-221.89
0.0310,0.9690	-217.96
0.1174,0.8826	-228.77
0.0821,0.9179	-226.28
0.1175,0.8825	-226.76
0.1108,0.8892	-230.78
0.0976,0.9024	-228.62
0.0382,0.9618	-227.58
0.1226,0.8774	-226.88
0.0891,0.9109	-228.63
0.1057,0.8943	-226.52
0.1103,0.8897	-224.51
0.1012,0.8988	-232.99
0.0429,0.9571	-217.92
0.1135,0.8865	-228.72
0.0915,0.9085	-224.03
0.0950,0.9050	-228.61
0.1091,0.8909	-226.58
0.0977,0.9023	-226.39
0.0452,0.9548	-220.99
0.1190,0.8810	-236.80
0.0896,0.9104	-226.31
0.0671,0.9329	-223.73
0.1133,0.8867	-224.61
0.0862,0.9138	-219.20
0.0467,0.9533	-220.98
0.1399,0.8601	-231.00
0.0862,0.9138	-221.57
0.0582,0.9418	-223.77
0.1206,0.8794	-224.84
0.0730,0.9270	-228.84
0.0496,0.9504	-220.96
0.1300,0.8700	-225.18
0.0860,0.9140	-233.38
0.0808,0.9192	-223.84
0.1178,0.8822	-236.83
0.0661,0.9339	-223.73
0.0452,0.9548	-220.99
0.1328,0.8672	-225.28
0.0844,0.9156	-233.43
0.0917,0.9083	-224.03
0.0887,0.9113	-230.96
0.0739,0.9261	-221.24
0.0477,0.9523	-220.97
0.1206,0.8794	-232.79
0.0886,0.9114	-226.30
0.0930,0.9070	-226.34
0.0868,0.9132	-226.29
0.0753,0.9247	-221.27
0.0628,0.9372	-221.04
0.1434,0.8566	-234.63
0.0718,0.9282	-226.31
0.0732,0.9268	-221.22
0.0739,0.9261	-226.30
0.0929,0.9071	-226.34
0.0646,0.9354	-221.06
0.1341,0.8659	-229.06
0.0753,0.9247	-223.78
0.0679,0.9321	-223.74
0.0780,0.9220	-221.34
0.1161,0.8839	-230.78
0.0575,0.9425	-220.98
0.1371,0.8629	-230.96
0.0947,0.9053	-226.36
0.0675,0.9325	-218.48
0.0791,0.9209	-221.37
0.1155,0.8845	-226.71
0.0440,0.9560	-224.09
0.1203,0.8797	-226.82
0.1096,0.8904	-224.49
0.0744,0.9256	-226.29
0.0852,0.9148	-223.91
0.1023,0.8977	-228.63
0.0433,0.9567	-224.11
0.1109,0.8891	-226.61
0.0959,0.9041	-224.13
0.0632,0.9368	-223.74
0.0873,0.9127	-223.95
0.0975,0.9025	-226.39
0.0386,0.9614	-221.11
0.1073,0.8927	-222.31
0.0977,0.9023	-224.17
0.0795,0.9205	-223.83
0.0830,0.9170	-221.47
0.0935,0.9065	-221.80
0.0343,0.9657	-217.92
0.1092,0.8908	-226.58
0.0788,0.9212	-221.36
0.0729,0.9271	-218.67
0.0757,0.9243	-223.78
0.0740,0.9260	-221.24
0.0343,0.9657	-217.92
0.1078,0.8922	-224.44
0.0866,0.9134	-228.65
0.0804,0.9196	-221.40
0.0719,0.9281	-223.75
0.0568,0.9432	-229.41
0.0371,0.9629	-227.67
0.1218,0.8782	-228.84
0.0725,0.9275	-223.76
0.0863,0.9137	-221.57
0.0664,0.9336	-229.02
0.0478,0.9522	-223.96
0.0378,0.9622	-221.14
0.1084,0.8916	-226.56
0.0722,0.9278	-226.31
0.0898,0.9102	-230.94
0.0725,0.9275	-228.85
0.0404,0.9596	-221.07
0.0398,0.9602	-221.09
0.1380,0.8620	-229.14
0.0806,0.9194	-233.58
0.0975,0.9025	-226.39
0.0651,0.9349	-223.73
0.0368,0.9632	-224.43
0.0343,0.9657	-224.59
0.1664,0.8336	-231.52
0.0841,0.9159	-226.28
0.0888,0.9112	-226.30
0.0524,0.9476	-220.96
0.0289,0.9711	-218.01
0.0319,0.9681	-228.18
0.1548,0.8452	-229.56
0.0581,0.9419	-220.99
0.0848,0.9152	-226.28
0.0529,0.9471	-220.96
0.0319,0.9681	-217.95
0.0350,0.9650	-221.23
0.1526,0.8474	-231.22
0.0761,0.9239	-223.79
0.0730,0.9270	-223.76
0.0670,0.9330	-218.47
0.0266,0.9734	-221.68
0.0408,0.9592	-221.07
0.1246,0.8754	-226.93
0.0777,0.9223	-221.33
0.0635,0.9365	-221.05
0.0652,0.9348	-223.73
0.0221,0.9779	-218.28
0.0407,0.9593	-217.91
0.1478,0.8522	-225.87
0.0650,0.9350	-223.73
0.0735,0.9265	-221.23
0.0666,0.9334	-229.01
0.0248,0.9752	-225.49
0.0444,0.9556	-224.07
0.1437,0.8563	-227.49
0.0636,0.9364	-221.05
0.0872,0.9128	-233.34
0.0619,0.9381	-221.03
0.0260,0.9740	-218.10
0.0425,0.9575	-227.26
0.1709,0.8291	-230.04
0.0600,0.9400	-226.51
0.0655,0.9345	-226.39
0.0660,0.9340	-229.03
0.0304,0.9696	-228.36
0.0444,0.9556	-217.94
0.1703,0.8297	-236.36
0.0640,0.9360	-223.74
0.0675,0.9325	-223.73
0.0668,0.9332	-218.46
0.0323,0.9677	-224.74
0.0609,0.9391	-223.75
0.1429,0.8571	-223.88
0.0623,0.9377	-221.03
0.0615,0.9385	-218.30
0.0639,0.9361	-231.79
0.0353,0.9647	-217.91
0.0570,0.9430	-218.17
0.1439,0.8561	-236.41
0.0512,0.9488	-223.88
0.0646,0.9354	-221.06
0.0706,0.9294	-221.17
0.0413,0.9587	-217.91
0.0506,0.9494	-220.96
0.1470,0.8530	-227.60
0.0447,0.9553	-217.94
0.0639,0.9361	-218.37
0.0794,0.9206	-226.27
0.0438,0.9562	-221.01
0.0512,0.9488	-218.04
0.1383,0.8617	-227.32
0.0511,0.9489	-226.80
0.0570,0.9430	-220.98
0.0903,0.9097	-228.63
0.0439,0.9561	-221.01
0.0606,0.9394	-218.27
0.1259,0.8741	-228.90
0.0587,0.9413	-223.77
0.0713,0.9287	-226.32
0.1023,0.8977	-226.46
0.0499,0.9501	-220.96
0.0667,0.9333	-223.73
0.1271,0.8729	-228.92
0.0795,0.9205	-223.83
0.0811,0.9189	-221.42
0.0882,0.9118	-226.30
0.0440,0.9560	-224.09
0.0837,0.9163	-233.46
0.1258,0.8742	-225.02
0.0829,0.9171	-228.68
0.0714,0.9286	-226.31
0.0919,0.9081	-224.04
0.0464,0.9536	-217.96
0.0998,0.9002	-228.62
0.1335,0.8665	-230.92
0.0817,0.9183	-221.44
0.0743,0.9257	-221.25
0.1033,0.8967	-224.31
0.0566,0.9434	-226.60
0.0991,0.9009	-230.83
0.1546,0.8454	-232.96
0.1072,0.8928	-228.66
0.0802,0.9198	-223.83
0.0767,0.9233	-223.79
0.0712,0.9288	-223.75
0.1016,0.8984	-226.45
0.1683,0.8317	-231.56
0.1284,0.8716	-227.03
0.0658,0.9342	-226.39
0.1019,0.8981	-224.28
0.0704,0.9296	-221.16
0.0943,0.9057	-224.09
0.1482,0.8518	-232.89
0.1047,0.8953	-230.79
0.0809,0.9191	-226.27
0.0870,0.9130	-221.59
0.0804,0.9196	-223.84
0.0866,0.9134	-223.93
0.1500,0.8500	-227.70
0.1052,0.8948	-226.51
0.0883,0.9117	-230.97
0.0723,0.9277	-221.20
0.0709,0.9291	-226.32
0.0891,0.9109	-221.66
0.1632,0.8368	-233.08
0.0897,0.9103	-223.99
0.0881,0.9119	-221.62
0.0774,0.9226	-223.80
0.0589,0.9411	-220.99
0.0784,0.9216	-223.81
0.1378,0.8622	-227.30
0.0759,0.9241	-231.28
0.0893,0.9107	-228.63
0.0791,0.9209	-221.37
0.0578,0.9422	-232.15
0.0723,0.9277	-221.20
0.1151,0.8849	-226.70
0.0816,0.9184	-226.27
0.0782,0.9218	-218.88
0.0888,0.9112	-223.98
0.0468,0.9532	-223.99
0.0705,0.9295	-221.17
0.1208,0.8792	-224.85
0.0904,0.9096	-224.01
0.0667,0.9333	-223.73
0.0886,0.9114	-226.30
0.0399,0.9601	-221.09
0.0691,0.9309	-226.34
0.0962,0.9038	-226.37
0.0775,0.9225	-228.75
0.0702,0.9298	-221.16
0.0934,0.9066	-221.80
0.0475,0.9525	-226.97
0.0608,0.9392	-218.28
0.1119,0.8881	-224.56
0.0729,0.9271	-223.76
0.0635,0.9365	-226.43
0.0868,0.9132	-223.94
0.0492,0.9508	-218.00
0.0454,0.9546	-217.95
0.1184,0.8816	-228.78
0.0715,0.9285	-223.75
0.0613,0.9387	-221.02
0.0904,0.9096	-228.62
0.0697,0.9303	-228.92
0.0420,0.9580	-221.04
0.1187,0.8813	-224.78
0.0603,0.9397	-229.24
0.0585,0.9415	-218.21
0.1045,0.8955	-230.79
0.0629,0.9371	-218.34
0.0485,0.9515	-223.94
0.1189,0.8811	-224.79
0.0535,0.9465	-229.58
0.0593,0.9407	-223.76
0.1047,0.8953	-224.35
0.0675,0.9325	-221.11
0.0442,0.9558	-227.15
0.1209,0.8791	-226.84
0.0459,0.9541	-220.99
0.0651,0.9349	-223.73
0.0897,0.9103	-226.31
0.0789,0.9211	-223.82
0.0367,0.9633	-224.44
0.1471,0.8529	-236.39
0.0422,0.9578	-224.16
0.0780,0.9220	-221.34
0.0710,0.9290	-218.60
0.0760,0.9240	-223.79
0.0397,0.9603	-217.90
0.1489,0.8511	-231.15
0.0410,0.9590	-221.06
0.0720,0.9280	-236.54
0.0850,0.9150	-228.66
0.0828,0.9172	-226.28
0.0338,0.9662	-217.92
0.1376,0.8624	-229.13
0.0335,0.9665	-224.65
0.0676,0.9324	-228.98
0.0822,0.9178	-221.45
0.0963,0.9037	-221.90
0.0452,0.9548	-221.00
0.1231,0.8769	-232.78
0.0403,0.9597	-224.25
0.0670,0.9330	-221.10
0.0785,0.9215	-221.35
0.1171,0.8829	-232.81
0.0352,0.9648	-221.22
0.0990,0.9010	-228.62
0.0471,0.9529	-230.00
0.0654,0.9346	-221.07
0.0754,0.9246	-226.29
0.0953,0.9047	-221.86
0.0424,0.9576	-221.03
0.0959,0.9041	-224.13
0.0450,0.9550	-221.00
0.0701,0.9299	-228.91
0.0656,0.9344	-223.73
0.1002,0.8998	-226.43
0.0367,0.9633	-221.17
0.0877,0.9123	-223.96
0.0424,0.9576	-224.15
0.0684,0.9316	-223.74
0.0712,0.9288	-226.32
0.0956,0.9044	-221.87
0.0405,0.9595	-221.07
0.0731,0.9269	-223.76
0.0493,0.9507	-223.92
0.0842,0.9158	-231.05
0.0851,0.9149	-223.91
0.0846,0.9154	-226.28
0.0437,0.9563	-217.93
0.0763,0.9237	-226.28
0.0528,0.9472	-223.85
0.0781,0.9219	-226.28
0.0972,0.9028	-224.16
0.0714,0.9286	-223.75
0.0520,0.9480	-223.86
0.0719,0.9281	-221.19
0.0585,0.9415	-220.99
0.0947,0.9053	-224.10
0.1312,0.8688	-227.11
0.0831,0.9169	-226.28
0.0569,0.9431	-223.78
0.0767,0.9233	-218.82
0.0630,0.9370	-221.04
0.1281,0.8719	-227.02
0.1418,0.8582	-229.23
0.0797,0.9203	-223.83
0.0608,0.9392	-223.75
0.0879,0.9121	-221.62
0.0588,0.9412	-218.22
0.1083,0.8917	-228.67
