#isoforms=['ENSG00000211445.SE.0.A.up_ENSG00000211445.SE.0.A.SE1_ENSG00000211445.SE.0.A.dn','ENSG00000211445.SE.0.B.up_ENSG00000211445.SE.0.B.dn']	exon_lens=('ENSG00000211445.SE.0.A.up',136),('ENSG00000211445.SE.0.A.SE1',426),('ENSG00000211445.SE.0.A.dn',154),('ENSG00000211445.SE.0.B.up',179),('ENSG00000211445.SE.0.B.dn',154)	iters=5000	burn_in=500	lag=10	percent_accept=84.06	proposal_type=drift	counts=(0,0):1338,(0,1):1133,(1,0):52,(1,1):3716	assigned_counts=0:86,1:4815	chrom=chr5	strand=+	mRNA_starts=151020606,151020563	mRNA_ends=151025493,151025493
sampled_psi	log_score
0.0063,0.9937	-28371.51
0.0080,0.9920	-28382.05
0.0079,0.9921	-28401.27
0.0089,0.9911	-28482.86
0.0056,0.9944	-28346.62
0.0092,0.9908	-28408.11
0.0065,0.9935	-28381.49
0.0073,0.9927	-28401.05
0.0074,0.9926	-28371.64
0.0085,0.9915	-28463.90
0.0056,0.9944	-28383.00
0.0104,0.9896	-28434.07
0.0066,0.9934	-28336.24
0.0055,0.9945	-28346.83
0.0067,0.9933	-28361.34
0.0074,0.9926	-28445.16
0.0061,0.9939	-28356.46
0.0104,0.9896	-28479.70
0.0074,0.9926	-28352.11
0.0047,0.9953	-28311.48
0.0070,0.9930	-28376.33
0.0077,0.9923	-28342.78
0.0071,0.9929	-28445.56
0.0116,0.9884	-28442.41
0.0070,0.9930	-28401.12
0.0052,0.9948	-28342.08
0.0070,0.9930	-28361.48
0.0075,0.9925	-28405.96
0.0077,0.9923	-28415.74
0.0107,0.9893	-28416.81
0.0063,0.9937	-28351.28
0.0065,0.9935	-28366.36
0.0077,0.9923	-28372.02
0.0070,0.9930	-28366.44
0.0080,0.9920	-28430.32
0.0093,0.9907	-28422.23
0.0065,0.9935	-28336.18
0.0070,0.9930	-28396.18
0.0089,0.9911	-28398.05
0.0060,0.9940	-28366.71
0.0076,0.9924	-28386.52
0.0089,0.9911	-28421.66
0.0059,0.9941	-28361.72
0.0073,0.9927	-28371.59
0.0065,0.9935	-28376.42
0.0056,0.9944	-28341.50
0.0086,0.9914	-28402.23
0.0078,0.9922	-28401.20
0.0058,0.9942	-28351.56
0.0089,0.9911	-28421.56
0.0058,0.9942	-28341.29
0.0059,0.9941	-28361.71
0.0074,0.9926	-28376.53
0.0075,0.9925	-28381.52
0.0066,0.9934	-28356.33
0.0084,0.9916	-28382.83
0.0058,0.9942	-28341.34
0.0056,0.9944	-28351.90
0.0077,0.9923	-28406.02
0.0079,0.9921	-28425.47
0.0083,0.9917	-28416.06
0.0090,0.9910	-28416.99
0.0072,0.9928	-28386.28
0.0074,0.9926	-28381.46
0.0072,0.9928	-28371.47
0.0078,0.9922	-28415.77
0.0080,0.9920	-28382.17
0.0079,0.9921	-28415.79
0.0062,0.9938	-28381.72
0.0061,0.9939	-28371.77
0.0073,0.9927	-28405.97
0.0083,0.9917	-28373.00
0.0068,0.9932	-28366.36
0.0066,0.9934	-28371.36
0.0065,0.9935	-28366.38
0.0071,0.9929	-28396.14
0.0078,0.9922	-28454.57
0.0068,0.9932	-28406.21
0.0076,0.9924	-28386.47
0.0071,0.9929	-28376.39
0.0075,0.9925	-28381.51
0.0076,0.9924	-28391.35
0.0078,0.9922	-28362.52
0.0075,0.9925	-28401.07
0.0064,0.9936	-28381.55
0.0071,0.9929	-28440.65
0.0074,0.9926	-28352.13
0.0068,0.9932	-28376.33
0.0077,0.9923	-28386.60
0.0079,0.9921	-28381.99
0.0065,0.9935	-28401.51
0.0068,0.9932	-28366.36
0.0080,0.9920	-28387.00
0.0066,0.9934	-28416.45
0.0070,0.9930	-28381.30
0.0076,0.9924	-28371.92
0.0084,0.9916	-28411.47
0.0061,0.9939	-28356.42
0.0085,0.9915	-28382.93
0.0077,0.9923	-28362.34
0.0060,0.9940	-28361.66
0.0098,0.9902	-28441.84
0.0077,0.9923	-28386.63
0.0060,0.9940	-28366.70
0.0079,0.9921	-28415.82
0.0068,0.9932	-28336.51
0.0063,0.9937	-28386.75
0.0085,0.9915	-28473.41
0.0071,0.9929	-28420.86
0.0070,0.9930	-28391.21
0.0082,0.9918	-28416.00
0.0062,0.9938	-28336.06
0.0065,0.9935	-28341.21
0.0087,0.9913	-28411.82
0.0060,0.9940	-28361.64
0.0067,0.9933	-28376.35
0.0070,0.9930	-28376.34
0.0065,0.9935	-28396.57
0.0067,0.9933	-28386.35
0.0084,0.9916	-28449.60
0.0052,0.9948	-28315.88
0.0076,0.9924	-28396.24
0.0065,0.9935	-28411.66
0.0071,0.9929	-28361.59
0.0066,0.9934	-28371.38
0.0078,0.9922	-28483.63
0.0058,0.9942	-28367.03
0.0069,0.9931	-28421.11
0.0060,0.9940	-28397.46
0.0074,0.9926	-28347.22
0.0058,0.9942	-28351.54
0.0071,0.9929	-28361.53
0.0062,0.9938	-28371.60
0.0069,0.9931	-28386.28
0.0062,0.9938	-28386.80
0.0079,0.9921	-28411.00
0.0067,0.9933	-28391.32
0.0093,0.9907	-28422.39
0.0064,0.9936	-28386.62
0.0076,0.9924	-28376.74
0.0058,0.9942	-28372.12
0.0064,0.9936	-28381.50
0.0064,0.9936	-28366.39
0.0079,0.9921	-28459.30
0.0055,0.9945	-28362.33
0.0078,0.9922	-28386.68
0.0069,0.9931	-28376.33
0.0069,0.9931	-28366.39
0.0067,0.9933	-28421.27
0.0073,0.9927	-28391.24
0.0064,0.9936	-28376.47
0.0081,0.9919	-28396.66
0.0062,0.9938	-28356.37
0.0077,0.9923	-28362.30
0.0067,0.9933	-28361.34
0.0060,0.9940	-28361.59
0.0063,0.9937	-28371.53
0.0069,0.9931	-28416.08
0.0059,0.9941	-28438.65
0.0077,0.9923	-28347.65
0.0064,0.9936	-28391.63
0.0065,0.9935	-28361.34
0.0067,0.9933	-28341.35
0.0073,0.9927	-28440.40
0.0060,0.9940	-28371.87
0.0064,0.9936	-28406.76
0.0065,0.9935	-28356.31
0.0066,0.9934	-28336.26
0.0060,0.9940	-28376.89
0.0064,0.9936	-28396.61
0.0060,0.9940	-28356.55
0.0062,0.9938	-28376.63
0.0085,0.9915	-28454.38
0.0061,0.9939	-28412.39
0.0064,0.9936	-28401.73
0.0068,0.9932	-28386.30
0.0054,0.9946	-28357.33
0.0057,0.9943	-28310.42
0.0079,0.9921	-28468.99
0.0064,0.9936	-28406.76
0.0063,0.9937	-28406.99
0.0068,0.9932	-28386.29
0.0056,0.9944	-28372.62
0.0071,0.9929	-28381.32
0.0077,0.9923	-28381.69
0.0072,0.9928	-28405.98
0.0074,0.9926	-28391.28
0.0069,0.9931	-28406.18
0.0056,0.9944	-28419.14
0.0063,0.9937	-28351.27
0.0069,0.9931	-28416.13
0.0072,0.9928	-28356.68
0.0065,0.9935	-28381.43
0.0063,0.9937	-28371.53
0.0055,0.9945	-28383.22
0.0067,0.9933	-28396.33
0.0065,0.9935	-28371.39
0.0069,0.9931	-28381.30
0.0065,0.9935	-28401.54
0.0057,0.9943	-28336.22
0.0069,0.9931	-28361.43
0.0068,0.9932	-28351.40
0.0063,0.9937	-28356.35
0.0077,0.9923	-28440.03
0.0058,0.9942	-28351.61
0.0082,0.9918	-28396.78
0.0068,0.9932	-28341.48
0.0068,0.9932	-28426.24
0.0064,0.9936	-28361.36
0.0079,0.9921	-28401.33
0.0055,0.9945	-28315.67
0.0083,0.9917	-28440.01
0.0063,0.9937	-28341.16
0.0080,0.9920	-28415.84
0.0076,0.9924	-28435.21
0.0079,0.9921	-28430.31
0.0057,0.9943	-28320.74
0.0073,0.9927	-28376.49
0.0072,0.9928	-28361.62
0.0087,0.9913	-28454.47
0.0074,0.9926	-28386.35
0.0088,0.9912	-28397.85
0.0060,0.9940	-28382.13
0.0083,0.9917	-28411.37
0.0070,0.9930	-28361.51
0.0072,0.9928	-28361.69
0.0070,0.9930	-28391.21
0.0087,0.9913	-28426.09
0.0058,0.9942	-28346.50
0.0073,0.9927	-28371.54
0.0068,0.9932	-28386.31
0.0078,0.9922	-28435.14
0.0068,0.9932	-28346.39
0.0082,0.9918	-28415.98
0.0051,0.9949	-28368.83
0.0061,0.9939	-28351.35
0.0061,0.9939	-28330.98
0.0075,0.9925	-28420.62
0.0054,0.9946	-28383.40
0.0076,0.9924	-28396.27
0.0062,0.9938	-28371.62
0.0069,0.9931	-28426.03
0.0061,0.9939	-28341.16
0.0069,0.9931	-28401.15
0.0056,0.9944	-28351.81
0.0064,0.9936	-28341.17
0.0065,0.9935	-28366.36
0.0076,0.9924	-28405.98
0.0066,0.9934	-28321.22
0.0067,0.9933	-28416.31
0.0059,0.9941	-28392.59
0.0061,0.9939	-28407.46
0.0061,0.9939	-28371.71
0.0077,0.9923	-28386.63
0.0073,0.9927	-28386.33
0.0069,0.9931	-28381.30
0.0066,0.9934	-28406.48
0.0064,0.9936	-28421.91
0.0061,0.9939	-28381.84
0.0069,0.9931	-28396.22
0.0083,0.9917	-28416.06
0.0070,0.9930	-28386.25
0.0073,0.9927	-28391.22
0.0058,0.9942	-28361.95
0.0068,0.9932	-28361.38
0.0070,0.9930	-28361.48
0.0073,0.9927	-28410.87
0.0070,0.9930	-28381.30
0.0077,0.9923	-28444.87
0.0061,0.9939	-28387.01
0.0068,0.9932	-28391.28
0.0065,0.9935	-28351.27
0.0077,0.9923	-28406.01
0.0063,0.9937	-28396.81
0.0064,0.9936	-28401.80
0.0061,0.9939	-28381.94
0.0081,0.9919	-28459.21
0.0079,0.9921	-28401.27
0.0060,0.9940	-28366.69
0.0059,0.9941	-28377.04
0.0068,0.9932	-28371.34
0.0071,0.9929	-28366.52
0.0080,0.9920	-28396.57
0.0071,0.9929	-28401.09
0.0079,0.9921	-28401.28
0.0051,0.9949	-28353.02
0.0077,0.9923	-28425.46
0.0075,0.9925	-28386.39
0.0080,0.9920	-28382.11
0.0088,0.9912	-28397.74
0.0080,0.9920	-28367.60
0.0053,0.9947	-28331.55
0.0081,0.9919	-28406.34
0.0075,0.9925	-28454.82
0.0074,0.9926	-28386.36
0.0079,0.9921	-28449.63
0.0071,0.9929	-28376.39
0.0059,0.9941	-28392.50
0.0075,0.9925	-28376.65
0.0066,0.9934	-28361.33
0.0073,0.9927	-28381.40
0.0061,0.9939	-28356.47
0.0071,0.9929	-28430.77
0.0073,0.9927	-28391.22
0.0063,0.9937	-28371.53
0.0063,0.9937	-28351.28
0.0065,0.9935	-28371.40
0.0057,0.9943	-28382.63
0.0064,0.9936	-28416.89
0.0074,0.9926	-28435.35
0.0075,0.9925	-28430.39
0.0054,0.9946	-28352.25
0.0065,0.9935	-28381.48
0.0068,0.9932	-28356.42
0.0076,0.9924	-28415.73
0.0086,0.9914	-28373.78
0.0075,0.9925	-28415.73
0.0059,0.9941	-28377.15
0.0063,0.9937	-28331.01
0.0082,0.9918	-28411.24
0.0068,0.9932	-28346.39
0.0073,0.9927	-28381.37
0.0070,0.9930	-28366.42
0.0062,0.9938	-28391.85
0.0068,0.9932	-28396.27
0.0072,0.9928	-28371.50
0.0063,0.9937	-28376.63
0.0077,0.9923	-28391.45
0.0057,0.9943	-28398.29
0.0067,0.9933	-28371.34
0.0059,0.9941	-28392.52
0.0069,0.9931	-28411.08
0.0067,0.9933	-28376.35
0.0072,0.9928	-28386.29
0.0063,0.9937	-28386.67
0.0096,0.9904	-28432.24
0.0070,0.9930	-28371.41
0.0066,0.9934	-28356.32
0.0056,0.9944	-28382.92
0.0086,0.9914	-28440.16
0.0061,0.9939	-28336.06
0.0088,0.9912	-28426.21
0.0069,0.9931	-28341.53
0.0055,0.9945	-28367.54
0.0056,0.9944	-28403.69
0.0073,0.9927	-28371.59
0.0082,0.9918	-28430.40
0.0065,0.9935	-28356.31
0.0067,0.9933	-28376.34
0.0066,0.9934	-28361.33
0.0061,0.9939	-28376.85
0.0085,0.9915	-28430.57
0.0078,0.9922	-28381.87
0.0063,0.9937	-28406.99
0.0085,0.9915	-28411.50
0.0075,0.9925	-28391.28
0.0059,0.9941	-28377.19
0.0082,0.9918	-28358.52
0.0072,0.9928	-28361.61
0.0063,0.9937	-28386.65
0.0090,0.9910	-28393.47
0.0075,0.9925	-28405.97
0.0072,0.9928	-28351.75
0.0088,0.9912	-28421.43
0.0071,0.9929	-28386.26
0.0080,0.9920	-28411.07
0.0071,0.9929	-28341.77
0.0090,0.9910	-28402.87
0.0076,0.9924	-28430.36
0.0076,0.9924	-28430.34
0.0072,0.9928	-28386.29
0.0082,0.9918	-28406.45
0.0069,0.9931	-28351.50
0.0084,0.9916	-28411.45
0.0070,0.9930	-28401.12
0.0061,0.9939	-28381.84
0.0079,0.9921	-28386.83
0.0078,0.9922	-28444.87
0.0069,0.9931	-28351.50
0.0084,0.9916	-28449.58
0.0062,0.9938	-28376.64
0.0068,0.9932	-28376.33
0.0082,0.9918	-28425.61
0.0078,0.9922	-28415.78
0.0070,0.9930	-28435.78
0.0075,0.9925	-28366.94
0.0061,0.9939	-28346.26
0.0065,0.9935	-28416.66
0.0059,0.9941	-28377.19
0.0076,0.9924	-28391.41
0.0076,0.9924	-28362.15
0.0069,0.9931	-28341.50
0.0060,0.9940	-28336.08
0.0080,0.9920	-28372.42
0.0077,0.9923	-28420.60
0.0070,0.9930	-28376.35
0.0067,0.9933	-28411.37
0.0063,0.9937	-28366.45
0.0070,0.9930	-28386.25
0.0073,0.9927	-28450.22
0.0081,0.9919	-28415.89
0.0086,0.9914	-28411.67
0.0074,0.9926	-28381.50
0.0078,0.9922	-28381.85
0.0075,0.9925	-28381.52
0.0071,0.9929	-28420.83
0.0071,0.9929	-28415.88
0.0069,0.9931	-28386.28
0.0078,0.9922	-28401.22
0.0081,0.9919	-28382.26
0.0077,0.9923	-28430.31
0.0069,0.9931	-28366.38
0.0071,0.9929	-28371.43
0.0077,0.9923	-28396.31
0.0070,0.9930	-28420.89
0.0091,0.9909	-28440.75
0.0088,0.9912	-28445.10
0.0065,0.9935	-28371.40
0.0066,0.9934	-28346.28
0.0066,0.9934	-28406.44
0.0081,0.9919	-28391.83
0.0099,0.9901	-28432.90
0.0097,0.9903	-28455.50
0.0058,0.9942	-28346.44
0.0068,0.9932	-28431.17
0.0056,0.9944	-28346.73
0.0080,0.9920	-28425.50
0.0105,0.9895	-28461.69
0.0087,0.9913	-28473.40
0.0063,0.9937	-28366.43
0.0076,0.9924	-28405.99
0.0075,0.9925	-28410.85
0.0087,0.9913	-28430.80
0.0092,0.9908	-28468.90
0.0073,0.9927	-28376.49
0.0089,0.9911	-28435.68
0.0093,0.9907	-28412.85
0.0074,0.9926	-28405.95
0.0068,0.9932	-28351.41
0.0083,0.9917	-28454.36
0.0072,0.9928	-28366.60
0.0075,0.9925	-28396.21
0.0090,0.9910	-28402.97
0.0077,0.9923	-28381.77
0.0068,0.9932	-28446.18
0.0076,0.9924	-28376.79
0.0084,0.9916	-28378.02
0.0081,0.9919	-28411.10
0.0089,0.9911	-28412.19
0.0085,0.9915	-28387.80
0.0067,0.9933	-28376.34
0.0079,0.9921	-28435.14
0.0086,0.9914	-28454.42
0.0072,0.9928	-28381.37
0.0083,0.9917	-28387.40
0.0088,0.9912	-28388.43
0.0075,0.9925	-28401.08
0.0065,0.9935	-28396.49
0.0092,0.9908	-28412.70
0.0092,0.9908	-28436.13
0.0081,0.9919	-28396.67
0.0070,0.9930	-28361.51
0.0079,0.9921	-28425.48
0.0066,0.9934	-28376.40
0.0075,0.9925	-28405.96
0.0096,0.9904	-28469.33
0.0071,0.9929	-28371.42
0.0070,0.9930	-28351.59
0.0079,0.9921	-28367.43
0.0058,0.9942	-28336.16
0.0076,0.9924	-28410.86
0.0082,0.9918	-28387.25
0.0073,0.9927	-28401.05
0.0070,0.9930	-28425.87
0.0087,0.9913	-28416.64
0.0066,0.9934	-28411.45
0.0067,0.9933	-28396.32
0.0079,0.9921	-28357.84
0.0069,0.9931	-28431.00
0.0075,0.9925	-28391.28
0.0087,0.9913	-28416.52
0.0058,0.9942	-28331.00
0.0070,0.9930	-28396.15
0.0070,0.9930	-28366.42
0.0077,0.9923	-28367.19
0.0077,0.9923	-28386.64
0.0075,0.9925	-28391.32
0.0053,0.9947	-28331.57
0.0088,0.9912	-28411.92
0.0082,0.9918	-28396.79
0.0076,0.9924	-28396.22
0.0072,0.9928	-28381.34
0.0073,0.9927	-28386.32
0.0075,0.9925	-28386.43
0.0087,0.9913	-28459.21
0.0081,0.9919	-28372.74
0.0074,0.9926	-28410.86
0.0069,0.9931	-28371.35
0.0071,0.9929	-28351.65
0.0067,0.9933	-28431.27
0.0084,0.9916	-28421.02
0.0073,0.9927	-28356.90
0.0068,0.9932	-28371.34
0.0070,0.9930	-28396.18
0.0081,0.9919	-28420.76
0.0066,0.9934	-28416.51
0.0068,0.9932	-28401.22
0.0070,0.9930	-28430.82
0.0064,0.9936	-28346.22
0.0057,0.9943	-28351.69
0.0081,0.9919	-28391.83
0.0062,0.9938	-28407.16
0.0065,0.9935	-28381.43
0.0062,0.9938	-28386.90
0.0056,0.9944	-28367.46
0.0057,0.9943	-28377.44
0.0068,0.9932	-28396.24
0.0059,0.9941	-28377.07
0.0064,0.9936	-28437.00
0.0065,0.9935	-28381.47
0.0061,0.9939	-28366.66
0.0068,0.9932	-28376.33
0.0072,0.9928	-28405.99
0.0073,0.9927	-28445.31
0.0068,0.9932	-28366.36
0.0067,0.9933	-28371.35
0.0061,0.9939	-28397.28
0.0070,0.9930	-28381.30
0.0057,0.9943	-28372.41
0.0067,0.9933	-28366.34
0.0068,0.9932	-28376.33
0.0080,0.9920	-28396.53
0.0073,0.9927	-28391.22
0.0062,0.9938	-28315.79
0.0053,0.9947	-28399.49
0.0064,0.9936	-28371.42
0.0068,0.9932	-28356.37
0.0070,0.9930	-28386.26
0.0060,0.9940	-28341.19
0.0069,0.9931	-28406.13
0.0056,0.9944	-28362.18
0.0058,0.9942	-28361.93
0.0078,0.9922	-28391.51
0.0067,0.9933	-28401.31
0.0052,0.9948	-28363.07
0.0057,0.9943	-28372.29
0.0056,0.9944	-28341.47
0.0067,0.9933	-28361.35
0.0072,0.9928	-28386.27
0.0074,0.9926	-28386.36
0.0067,0.9933	-28406.35
0.0054,0.9946	-28357.44
0.0053,0.9947	-28362.79
0.0073,0.9927	-28450.21
0.0069,0.9931	-28376.33
0.0060,0.9940	-28397.33
0.0064,0.9936	-28386.56
0.0062,0.9938	-28402.01
0.0068,0.9932	-28401.27
0.0076,0.9924	-28367.05
0.0058,0.9942	-28356.77
0.0061,0.9939	-28386.92
0.0073,0.9927	-28366.68
0.0059,0.9941	-28366.93
0.0071,0.9929	-28371.42
0.0080,0.9920	-28430.31
0.0071,0.9929	-28366.49
0.0052,0.9948	-28342.11
0.0070,0.9930	-28366.41
0.0060,0.9940	-28366.71
0.0071,0.9929	-28401.10
0.0094,0.9906	-28422.42
0.0072,0.9928	-28361.65
0.0051,0.9949	-28310.79
0.0063,0.9937	-28386.71
0.0068,0.9932	-28361.39
0.0062,0.9938	-28376.74
0.0098,0.9902	-28395.63
0.0071,0.9929	-28406.01
0.0053,0.9947	-28342.05
0.0071,0.9929	-28361.53
0.0051,0.9949	-28342.29
0.0063,0.9937	-28401.81
0.0096,0.9904	-28432.13
0.0095,0.9905	-28436.69
0.0061,0.9939	-28361.52
0.0069,0.9931	-28396.22
0.0055,0.9945	-28362.40
0.0073,0.9927	-28430.49
0.0087,0.9913	-28440.28
0.0083,0.9917	-28420.88
0.0079,0.9921	-28372.34
0.0069,0.9931	-28366.40
0.0067,0.9933	-28376.33
0.0064,0.9936	-28386.54
0.0105,0.9895	-28429.75
0.0076,0.9924	-28362.10
0.0078,0.9922	-28440.01
0.0072,0.9928	-28430.62
0.0079,0.9921	-28362.66
0.0060,0.9940	-28382.15
0.0104,0.9896	-28470.57
0.0065,0.9935	-28411.61
0.0070,0.9930	-28371.41
0.0078,0.9922	-28367.25
0.0090,0.9910	-28449.95
0.0074,0.9926	-28415.76
0.0091,0.9909	-28426.66
0.0068,0.9932	-28366.35
0.0063,0.9937	-28406.87
0.0078,0.9922	-28406.06
0.0069,0.9931	-28366.38
0.0073,0.9927	-28401.05
0.0082,0.9918	-28387.21
0.0059,0.9941	-28346.39
0.0077,0.9923	-28430.33
0.0065,0.9935	-28356.31
0.0075,0.9925	-28459.67
0.0064,0.9936	-28421.95
0.0068,0.9932	-28361.37
0.0056,0.9944	-28310.43
0.0075,0.9925	-28415.74
0.0067,0.9933	-28361.34
0.0082,0.9918	-28411.26
0.0064,0.9936	-28386.59
0.0054,0.9946	-28357.48
0.0057,0.9943	-28387.79
0.0076,0.9924	-28381.61
0.0074,0.9926	-28405.96
0.0072,0.9928	-28396.13
0.0062,0.9938	-28371.65
0.0066,0.9934	-28371.35
0.0085,0.9915	-28430.61
0.0074,0.9926	-28371.71
0.0077,0.9923	-28376.91
0.0077,0.9923	-28415.75
0.0066,0.9934	-28346.28
0.0072,0.9928	-28381.33
0.0079,0.9921	-28415.82
0.0073,0.9927	-28401.05
0.0074,0.9926	-28401.06
0.0090,0.9910	-28473.48
0.0064,0.9936	-28351.27
0.0063,0.9937	-28361.39
0.0072,0.9928	-28366.56
0.0062,0.9938	-28386.91
0.0077,0.9923	-28410.88
0.0090,0.9910	-28435.91
0.0080,0.9920	-28396.54
0.0063,0.9937	-28376.59
0.0077,0.9923	-28406.02
0.0073,0.9927	-28361.77
0.0073,0.9927	-28420.71
0.0080,0.9920	-28396.59
0.0064,0.9936	-28401.68
0.0069,0.9931	-28376.33
0.0066,0.9934	-28426.45
0.0068,0.9932	-28396.28
0.0080,0.9920	-28338.75
0.0079,0.9921	-28377.21
0.0063,0.9937	-28376.54
0.0072,0.9928	-28391.20
0.0067,0.9933	-28351.37
0.0079,0.9921	-28420.65
0.0085,0.9915	-28402.11
0.0076,0.9924	-28371.85
0.0058,0.9942	-28392.68
0.0069,0.9931	-28381.30
0.0056,0.9944	-28351.89
0.0083,0.9917	-28387.39
0.0070,0.9930	-28361.50
0.0060,0.9940	-28376.95
0.0082,0.9918	-28406.37
0.0080,0.9920	-28401.42
0.0063,0.9937	-28315.84
0.0066,0.9934	-28386.43
0.0079,0.9921	-28420.63
0.0055,0.9945	-28346.90
0.0076,0.9924	-28376.77
0.0064,0.9936	-28356.32
0.0069,0.9931	-28396.19
0.0070,0.9930	-28396.15
0.0078,0.9922	-28439.99
0.0056,0.9944	-28367.36
0.0073,0.9927	-28401.05
0.0062,0.9938	-28366.56
0.0082,0.9918	-28430.38
0.0072,0.9928	-28371.52
0.0066,0.9934	-28391.41
0.0060,0.9940	-28361.58
0.0071,0.9929	-28391.20
0.0064,0.9936	-28366.40
0.0061,0.9939	-28361.53
0.0071,0.9929	-28381.32
0.0064,0.9936	-28391.58
0.0055,0.9945	-28336.47
0.0064,0.9936	-28346.23
0.0054,0.9946	-28362.56
0.0059,0.9941	-28346.33
0.0068,0.9932	-28386.31
0.0054,0.9946	-28336.54
0.0063,0.9937	-28341.15
0.0072,0.9928	-28376.43
0.0066,0.9934	-28416.43
0.0060,0.9940	-28336.08
0.0064,0.9936	-28396.72
0.0065,0.9935	-28371.41
0.0064,0.9936	-28396.62
0.0082,0.9918	-28430.40
0.0073,0.9927	-28391.21
0.0062,0.9938	-28376.70
0.0072,0.9928	-28376.45
0.0083,0.9917	-28397.03
0.0078,0.9922	-28381.87
0.0064,0.9936	-28346.22
0.0066,0.9934	-28391.45
0.0064,0.9936	-28411.72
0.0077,0.9923	-28415.75
0.0071,0.9929	-28391.20
0.0074,0.9926	-28357.01
0.0081,0.9919	-28411.11
0.0081,0.9919	-28401.49
0.0069,0.9931	-28406.15
0.0060,0.9940	-28341.21
0.0084,0.9916	-28416.18
0.0069,0.9931	-28361.44
0.0072,0.9928	-28371.53
0.0094,0.9906	-28408.60
0.0065,0.9935	-28381.48
0.0054,0.9946	-28372.96
0.0078,0.9922	-28386.73
0.0071,0.9929	-28406.00
0.0078,0.9922	-28420.62
0.0079,0.9921	-28406.16
0.0058,0.9942	-28341.33
0.0055,0.9945	-28346.79
0.0073,0.9927	-28386.30
0.0073,0.9927	-28401.05
0.0068,0.9932	-28381.31
0.0065,0.9935	-28346.24
0.0069,0.9931	-28475.65
0.0071,0.9929	-28425.76
0.0077,0.9923	-28440.03
0.0068,0.9932	-28361.39
0.0059,0.9941	-28351.53
0.0074,0.9926	-28415.74
0.0065,0.9935	-28366.38
0.0080,0.9920	-28406.18
0.0058,0.9942	-28341.29
0.0060,0.9940	-28412.80
0.0065,0.9935	-28416.73
0.0069,0.9931	-28361.43
0.0064,0.9936	-28416.84
0.0072,0.9928	-28405.98
0.0081,0.9919	-28396.75
0.0069,0.9931	-28381.30
0.0060,0.9940	-28371.86
0.0060,0.9940	-28356.48
0.0060,0.9940	-28402.44
0.0064,0.9936	-28346.22
0.0079,0.9921	-28391.68
0.0065,0.9935	-28381.44
0.0076,0.9924	-28362.11
0.0058,0.9942	-28367.00
0.0065,0.9935	-28321.10
0.0074,0.9926	-28405.95
0.0078,0.9922	-28415.75
0.0059,0.9941	-28356.61
0.0066,0.9934	-28341.29
0.0056,0.9944	-28356.98
0.0071,0.9929	-28415.88
0.0077,0.9923	-28406.01
0.0090,0.9910	-28398.18
0.0055,0.9945	-28357.25
0.0069,0.9931	-28381.30
0.0055,0.9945	-28336.41
0.0072,0.9928	-28410.91
0.0084,0.9916	-28444.82
0.0080,0.9920	-28439.96
0.0071,0.9929	-28391.20
0.0076,0.9924	-28396.27
0.0075,0.9925	-28361.98
0.0081,0.9919	-28425.53
0.0081,0.9919	-28387.04
0.0087,0.9913	-28430.75
0.0083,0.9917	-28368.23
0.0060,0.9940	-28361.65
0.0066,0.9934	-28381.39
0.0088,0.9912	-28412.02
0.0085,0.9915	-28425.80
0.0088,0.9912	-28445.03
0.0081,0.9919	-28396.71
0.0059,0.9941	-28351.51
0.0073,0.9927	-28356.78
0.0076,0.9924	-28415.73
0.0087,0.9913	-28454.44
0.0090,0.9910	-28398.24
0.0079,0.9921	-28439.98
0.0080,0.9920	-28415.87
0.0067,0.9933	-28411.31
0.0078,0.9922	-28401.20
0.0089,0.9911	-28421.55
0.0089,0.9911	-28445.18
0.0084,0.9916	-28468.68
0.0077,0.9923	-28352.64
0.0071,0.9929	-28366.47
0.0067,0.9933	-28366.35
0.0090,0.9910	-28454.71
0.0083,0.9917	-28420.85
