#isoforms=['ENSG00000186575.SE.4.A.up_ENSG00000186575.SE.4.A.SE1_ENSG00000186575.SE.4.A.dn','ENSG00000186575.SE.4.B.up_ENSG00000186575.SE.4.B.dn']	exon_lens=('ENSG00000186575.SE.4.A.up',128),('ENSG00000186575.SE.4.A.SE1',163),('ENSG00000186575.SE.4.A.dn',3847),('ENSG00000186575.SE.4.B.up',128),('ENSG00000186575.SE.4.B.dn',194)	iters=5000	burn_in=500	lag=10	percent_accept=94.66	proposal_type=drift	counts=(0,0):248,(0,1):1,(1,0):1214,(1,1):66	assigned_counts=0:1275,1:6	chrom=chr22	strand=+	mRNA_starts=29678196,29678196	mRNA_ends=29698598,29694945
sampled_psi	log_score
0.8882,0.1118	-10668.42
0.8961,0.1039	-10660.01
0.8879,0.1121	-10653.93
0.7587,0.2413	-10679.62
0.8537,0.1463	-10661.15
0.8650,0.1350	-10660.74
0.8962,0.1038	-10670.79
0.8608,0.1392	-10669.99
0.8849,0.1151	-10662.23
0.7485,0.2515	-10679.87
0.8740,0.1260	-10664.33
0.8543,0.1457	-10675.28
0.8870,0.1130	-10668.39
0.8252,0.1748	-10676.45
0.9005,0.0995	-10651.16
0.7608,0.2392	-10679.57
0.8994,0.1006	-10662.17
0.8432,0.1568	-10668.32
0.8677,0.1323	-10664.41
0.8309,0.1691	-10665.37
0.9079,0.0921	-10662.22
0.7727,0.2273	-10668.36
0.8911,0.1089	-10657.98
0.8429,0.1571	-10668.33
0.8672,0.1328	-10666.29
0.8242,0.1758	-10673.36
0.9125,0.0875	-10659.94
0.7210,0.2790	-10681.80
0.8715,0.1285	-10666.27
0.8731,0.1269	-10666.27
0.8704,0.1296	-10675.80
0.8329,0.1671	-10665.30
0.8964,0.1036	-10662.17
0.7416,0.2584	-10680.07
0.8691,0.1309	-10670.07
0.8638,0.1362	-10664.47
0.8652,0.1348	-10660.73
0.8267,0.1733	-10676.47
0.8895,0.1105	-10662.19
0.7558,0.2442	-10677.42
0.8676,0.1324	-10658.77
0.8599,0.1401	-10664.54
0.8616,0.1384	-10668.17
0.8297,0.1703	-10676.50
0.9086,0.0914	-10662.23
0.7882,0.2118	-10673.97
0.8416,0.1584	-10670.02
0.8683,0.1317	-10656.86
0.8523,0.1477	-10662.96
0.8511,0.1489	-10673.46
0.8963,0.1037	-10664.32
0.7859,0.2141	-10671.44
0.8017,0.1983	-10669.46
0.8343,0.1657	-10673.33
0.8575,0.1425	-10661.00
0.8464,0.1536	-10680.23
0.9062,0.0938	-10666.74
0.7691,0.2309	-10678.21
0.8067,0.1933	-10664.99
0.8461,0.1539	-10668.28
0.8556,0.1444	-10666.41
0.8338,0.1662	-10662.04
0.8858,0.1142	-10660.18
0.7538,0.2462	-10671.90
0.8072,0.1928	-10673.55
0.8383,0.1617	-10684.86
0.8511,0.1489	-10669.97
0.8084,0.1916	-10674.97
0.8910,0.1090	-10655.88
0.7591,0.2409	-10680.75
0.8214,0.1786	-10673.37
0.8411,0.1589	-10673.36
0.8408,0.1592	-10675.02
0.7980,0.2020	-10672.35
0.8717,0.1283	-10660.52
0.7651,0.2349	-10677.12
0.8235,0.1765	-10673.36
0.8248,0.1752	-10681.10
0.8228,0.1772	-10681.04
0.7951,0.2049	-10683.29
0.8630,0.1370	-10670.01
0.7857,0.2143	-10667.55
0.8180,0.1820	-10676.41
0.8145,0.1855	-10677.88
0.7873,0.2127	-10674.00
0.7848,0.2152	-10676.66
0.8353,0.1647	-10668.46
0.7568,0.2432	-10675.12
0.8041,0.1959	-10677.84
0.8430,0.1570	-10670.01
0.7959,0.2041	-10669.69
0.8164,0.1836	-10664.47
0.8436,0.1564	-10671.69
0.7736,0.2264	-10669.53
0.7741,0.2259	-10675.65
0.8730,0.1270	-10670.13
0.8171,0.1829	-10668.92
0.8334,0.1666	-10666.89
0.8701,0.1299	-10668.18
0.7674,0.2326	-10684.22
0.8092,0.1908	-10676.41
0.8642,0.1358	-10679.27
0.8165,0.1835	-10676.41
0.8204,0.1796	-10673.38
0.8779,0.1221	-10670.22
0.7333,0.2667	-10685.41
0.7761,0.2239	-10673.11
0.8789,0.1211	-10666.28
0.8247,0.1753	-10670.25
0.8388,0.1612	-10676.64
0.8421,0.1579	-10659.97
0.7385,0.2615	-10681.21
0.7906,0.2094	-10676.57
0.8964,0.1036	-10666.48
0.8363,0.1637	-10665.18
0.8389,0.1611	-10674.99
0.8306,0.1694	-10670.15
0.7546,0.2454	-10678.59
0.7691,0.2309	-10670.99
0.9120,0.0880	-10659.94
0.8662,0.1338	-10662.56
0.8127,0.1873	-10680.80
0.8152,0.1848	-10668.98
0.8083,0.1917	-10670.65
0.7974,0.2026	-10672.37
0.9067,0.0933	-10655.39
0.8269,0.1731	-10671.78
0.7985,0.2015	-10665.45
0.7958,0.2042	-10672.42
0.7966,0.2034	-10675.13
0.8140,0.1860	-10673.45
0.9136,0.0864	-10659.94
0.8407,0.1593	-10676.68
0.8124,0.1876	-10688.13
0.7739,0.2261	-10671.97
0.8046,0.1954	-10672.18
0.8208,0.1792	-10671.86
0.9243,0.0757	-10652.55
0.8096,0.1904	-10674.96
0.7610,0.2390	-10683.04
0.7883,0.2117	-10679.23
0.8044,0.1956	-10669.36
0.8355,0.1645	-10671.71
0.9120,0.0880	-10659.94
0.8023,0.1977	-10665.24
0.7633,0.2367	-10681.86
0.7758,0.2242	-10673.12
0.7879,0.2121	-10668.73
0.8471,0.1529	-10669.98
0.9071,0.0929	-10657.65
0.8497,0.1503	-10664.78
0.7394,0.2606	-10683.27
0.8323,0.1677	-10668.52
0.7993,0.2007	-10672.32
0.8427,0.1573	-10673.37
0.9172,0.0828	-10662.37
0.8347,0.1653	-10670.09
0.7151,0.2849	-10683.87
0.8353,0.1647	-10676.58
0.7996,0.2004	-10670.93
0.8441,0.1559	-10659.86
0.9180,0.0820	-10657.56
0.8323,0.1677	-10674.93
0.7289,0.2711	-10675.58
0.8117,0.1883	-10670.56
0.8065,0.1935	-10670.71
0.8758,0.1242	-10660.41
0.9182,0.0818	-10662.39
0.8738,0.1262	-10666.27
0.7217,0.2783	-10678.91
0.8017,0.1983	-10676.44
0.8245,0.1755	-10673.35
0.8695,0.1305	-10660.59
0.9076,0.0924	-10659.93
0.8809,0.1191	-10660.28
0.7614,0.2386	-10671.44
0.8204,0.1796	-10667.31
0.8449,0.1551	-10671.69
0.8614,0.1386	-10668.17
0.9032,0.0968	-10659.95
0.8785,0.1215	-10664.30
0.7831,0.2169	-10680.54
0.8278,0.1722	-10663.92
0.8563,0.1437	-10664.62
0.8720,0.1280	-10675.87
0.9008,0.0992	-10659.97
0.8724,0.1276	-10664.35
0.7851,0.2149	-10684.43
0.8388,0.1612	-10668.40
0.8824,0.1176	-10656.22
0.8606,0.1394	-10668.17
0.9158,0.0842	-10659.95
0.8826,0.1174	-10672.35
0.7790,0.2210	-10676.77
0.8196,0.1804	-10668.85
0.8632,0.1368	-10658.96
0.8694,0.1306	-10662.49
0.9267,0.0733	-10652.50
0.8759,0.1241	-10658.46
0.7969,0.2031	-10672.39
0.7949,0.2051	-10675.15
0.8643,0.1357	-10666.31
0.8642,0.1358	-10673.72
0.9375,0.0625	-10655.02
0.8708,0.1292	-10673.91
0.8464,0.1536	-10661.45
0.7524,0.2476	-10680.88
0.8458,0.1542	-10664.88
0.8769,0.1231	-10664.31
0.9324,0.0676	-10649.76
0.8869,0.1131	-10662.21
0.8341,0.1659	-10679.79
0.7523,0.2477	-10678.66
0.8670,0.1330	-10675.67
0.8594,0.1406	-10668.17
0.9193,0.0807	-10662.42
0.8932,0.1068	-10657.93
0.8430,0.1570	-10676.73
0.7126,0.2874	-10680.32
0.8622,0.1378	-10662.67
0.8198,0.1802	-10671.87
0.9138,0.0862	-10664.66
0.8813,0.1187	-10658.27
0.8522,0.1478	-10662.96
0.7366,0.2634	-10679.21
0.8688,0.1312	-10660.61
0.8132,0.1868	-10677.87
0.9279,0.0721	-10662.69
0.8627,0.1373	-10664.49
0.8450,0.1550	-10663.21
0.7422,0.2578	-10681.11
0.8487,0.1513	-10661.35
0.7854,0.2146	-10674.05
0.9088,0.0912	-10650.73
0.8575,0.1425	-10668.18
0.7946,0.2054	-10676.51
0.7297,0.2703	-10678.51
0.8843,0.1157	-10658.17
0.8194,0.1806	-10664.32
0.8943,0.1057	-10668.58
0.8720,0.1280	-10664.35
0.7362,0.2638	-10681.28
0.7230,0.2770	-10676.92
0.8702,0.1298	-10670.08
0.8427,0.1573	-10670.01
0.8977,0.1023	-10659.99
0.8669,0.1331	-10660.67
0.7526,0.2474	-10681.98
0.7490,0.2510	-10682.04
0.8762,0.1238	-10658.44
0.8518,0.1482	-10659.48
0.9183,0.0817	-10652.72
0.8870,0.1130	-10664.27
0.7655,0.2345	-10675.93
0.7634,0.2366	-10678.35
0.8826,0.1174	-10666.30
0.8694,0.1306	-10671.97
0.8980,0.1020	-10653.46
0.8693,0.1307	-10662.49
0.7755,0.2245	-10683.05
0.7675,0.2325	-10678.25
0.8682,0.1318	-10660.63
0.8493,0.1507	-10659.60
0.8901,0.1099	-10660.10
0.8725,0.1275	-10662.43
0.7994,0.2006	-10670.93
0.7945,0.2055	-10671.11
0.8532,0.1468	-10668.21
0.8751,0.1249	-10664.32
0.8816,0.1184	-10668.30
0.8711,0.1289	-10673.92
0.8034,0.1966	-10676.43
0.7646,0.2354	-10674.79
0.8510,0.1490	-10661.26
0.8823,0.1177	-10668.31
0.9124,0.0876	-10657.59
0.8885,0.1115	-10666.35
0.8049,0.1951	-10670.75
0.7782,0.2218	-10673.02
0.8262,0.1738	-10676.46
0.8897,0.1103	-10660.10
0.9220,0.0780	-10655.08
0.8964,0.1036	-10657.85
0.7946,0.2054	-10676.51
0.7800,0.2200	-10674.22
0.8444,0.1556	-10675.07
0.8909,0.1091	-10660.09
0.9001,0.0999	-10666.57
0.8909,0.1091	-10666.38
0.8028,0.1972	-10672.22
0.7936,0.2064	-10673.83
0.8386,0.1614	-10671.70
0.8736,0.1264	-10677.87
0.8840,0.1160	-10656.15
0.8982,0.1018	-10666.52
0.8154,0.1846	-10685.31
0.7801,0.2199	-10675.48
0.8311,0.1689	-10662.18
0.8734,0.1266	-10660.48
0.8728,0.1272	-10664.35
0.8955,0.1045	-10664.32
0.8216,0.1784	-10673.37
0.8005,0.1995	-10668.12
0.8200,0.1800	-10673.39
0.8768,0.1232	-10656.46
0.8696,0.1304	-10664.38
0.9098,0.0902	-10662.24
0.8467,0.1533	-10673.40
0.8360,0.1640	-10673.33
0.8090,0.1910	-10670.63
0.8792,0.1208	-10656.35
0.8659,0.1341	-10666.30
0.8930,0.1070	-10662.17
0.8601,0.1399	-10659.09
0.8090,0.1910	-10674.96
0.8216,0.1784	-10673.37
0.8634,0.1366	-10666.32
0.8571,0.1429	-10666.39
0.8861,0.1139	-10672.48
0.8642,0.1358	-10668.17
0.7948,0.2052	-10683.28
0.8395,0.1605	-10675.00
0.8330,0.1670	-10671.72
0.8660,0.1340	-10656.97
0.9006,0.0994	-10670.99
0.8353,0.1647	-10676.58
0.8215,0.1785	-10676.43
0.8015,0.1985	-10669.46
0.8270,0.1730	-10665.52
0.8918,0.1082	-10668.51
0.8972,0.1028	-10655.67
0.8452,0.1548	-10666.60
0.8225,0.1775	-10668.77
0.7793,0.2207	-10679.29
0.8431,0.1569	-10668.33
0.8898,0.1102	-10660.10
0.9072,0.0928	-10664.49
0.8205,0.1795	-10677.94
0.8027,0.1973	-10670.82
0.8160,0.1840	-10674.91
0.8561,0.1439	-10664.62
0.8766,0.1234	-10664.31
0.8880,0.1120	-10662.21
0.8349,0.1651	-10661.99
0.8472,0.1528	-10666.56
0.8410,0.1590	-10671.69
0.8789,0.1211	-10664.30
0.8729,0.1271	-10668.20
0.8752,0.1248	-10660.43
0.8108,0.1892	-10673.49
0.8771,0.1229	-10652.52
0.8221,0.1779	-10679.49
0.8969,0.1031	-10660.00
0.8671,0.1329	-10668.17
0.8735,0.1265	-10668.20
0.8321,0.1679	-10676.53
0.8757,0.1243	-10664.32
0.8529,0.1471	-10664.70
0.8633,0.1367	-10655.27
0.8413,0.1587	-10678.36
0.8790,0.1210	-10660.33
0.8251,0.1749	-10673.35
0.8827,0.1173	-10664.28
0.8392,0.1608	-10673.35
0.8500,0.1500	-10668.24
0.7944,0.2056	-10679.22
0.8656,0.1344	-10662.58
0.8337,0.1663	-10674.94
0.9017,0.0983	-10662.17
0.8715,0.1285	-10666.27
0.8332,0.1668	-10681.37
0.8085,0.1915	-10663.44
0.8907,0.1093	-10662.19
0.8412,0.1588	-10671.69
0.9112,0.0888	-10659.93
0.8576,0.1424	-10671.77
0.8313,0.1687	-10665.36
0.8155,0.1845	-10668.97
0.9015,0.0985	-10668.81
0.8510,0.1490	-10659.52
0.8988,0.1012	-10657.80
0.8470,0.1530	-10663.14
0.8301,0.1699	-10673.33
0.8205,0.1795	-10665.78
0.9235,0.0765	-10657.56
0.8108,0.1892	-10666.22
0.9143,0.0857	-10655.21
0.8679,0.1321	-10660.64
0.8830,0.1170	-10664.28
0.7991,0.2009	-10670.94
0.9128,0.0872	-10659.94
0.8181,0.1819	-10674.91
0.9410,0.0590	-10652.28
0.8441,0.1559	-10666.62
0.8700,0.1300	-10662.48
0.7650,0.2350	-10677.13
0.9118,0.0882	-10655.26
0.8210,0.1790	-10671.85
0.9383,0.0617	-10652.30
0.8547,0.1453	-10671.74
0.8567,0.1433	-10666.40
0.7266,0.2734	-10684.52
0.9126,0.0874	-10664.63
0.8019,0.1981	-10673.64
0.9329,0.0671	-10662.90
0.8885,0.1115	-10664.28
0.8855,0.1145	-10660.18
0.7267,0.2733	-10682.57
0.9209,0.0791	-10662.46
0.8018,0.1982	-10673.65
0.9298,0.0702	-10662.76
0.8923,0.1077	-10660.06
0.8872,0.1128	-10670.46
0.7436,0.2564	-10682.14
0.8965,0.1035	-10653.53
0.7870,0.2130	-10671.39
0.9309,0.0691	-10657.61
0.8650,0.1350	-10670.02
0.8931,0.1069	-10660.05
0.7447,0.2553	-10687.47
0.8744,0.1256	-10660.45
0.7970,0.2030	-10673.75
0.9324,0.0676	-10657.63
0.8726,0.1274	-10664.35
0.8972,0.1028	-10657.83
0.7542,0.2458	-10678.60
0.8840,0.1160	-10664.28
0.7898,0.2102	-10673.93
0.9417,0.0583	-10655.05
0.8397,0.1603	-10666.72
0.9086,0.0914	-10653.04
0.7459,0.2541	-10679.94
0.8489,0.1511	-10671.70
0.7595,0.2405	-10683.05
0.9462,0.0538	-10652.26
0.8523,0.1477	-10664.71
0.8910,0.1090	-10662.18
0.7810,0.2190	-10680.55
0.8369,0.1631	-10678.24
0.7612,0.2388	-10673.77
0.9493,0.0507	-10646.41
0.8719,0.1281	-10672.03
0.8757,0.1243	-10666.27
0.7479,0.2521	-10679.88
0.8661,0.1339	-10666.30
0.7215,0.2785	-10681.78
0.9517,0.0483	-10649.30
0.8702,0.1298	-10668.18
0.9042,0.0958	-10657.70
0.7649,0.2351	-10677.13
0.8339,0.1661	-10670.10
0.7093,0.2907	-10682.28
0.9418,0.0582	-10652.27
0.8877,0.1123	-10664.28
0.9126,0.0874	-10650.56
0.7971,0.2029	-10665.54
0.8436,0.1564	-10668.32
0.7731,0.2269	-10667.10
0.9402,0.0598	-10660.55
0.8746,0.1254	-10675.98
0.8931,0.1069	-10670.66
0.7947,0.2053	-10672.45
0.8358,0.1642	-10666.83
0.7606,0.2394	-10678.42
0.9394,0.0606	-10665.99
0.8614,0.1386	-10662.69
0.8711,0.1289	-10662.46
0.8134,0.1866	-10676.40
0.8608,0.1392	-10671.81
0.7640,0.2360	-10672.46
0.9434,0.0566	-10660.70
0.8728,0.1272	-10668.20
0.8582,0.1418	-10675.38
0.8208,0.1792	-10667.29
0.8690,0.1310	-10660.61
0.7892,0.2108	-10675.27
0.9382,0.0618	-10652.30
0.8824,0.1176	-10668.31
0.8322,0.1678	-10666.92
0.8210,0.1790	-10667.29
0.8683,0.1317	-10664.40
0.7621,0.2379	-10679.54
0.9298,0.0702	-10657.60
0.8877,0.1123	-10662.21
0.8271,0.1729	-10670.21
0.8224,0.1776	-10674.90
0.8735,0.1265	-10658.54
0.7751,0.2249	-10674.39
0.9148,0.0852	-10652.83
0.9218,0.0782	-10660.02
0.8621,0.1379	-10666.33
0.8334,0.1666	-10678.16
0.8574,0.1426	-10664.59
0.7363,0.2637	-10680.25
0.9054,0.0946	-10657.68
0.9088,0.0912	-10662.23
0.8658,0.1342	-10664.44
0.8480,0.1520	-10666.54
0.8577,0.1423	-10669.98
0.7632,0.2368	-10678.35
0.8893,0.1107	-10666.36
0.9305,0.0695	-10657.61
0.8580,0.1420	-10677.17
0.8338,0.1662	-10670.10
0.8493,0.1507	-10671.70
0.8121,0.1879	-10676.40
0.8844,0.1156	-10658.17
0.9241,0.0759	-10657.56
0.8448,0.1552	-10673.38
0.7867,0.2133	-10675.32
0.8270,0.1730	-10667.08
0.8099,0.1901	-10677.85
0.8978,0.1022	-10655.65
0.9135,0.0865	-10659.94
0.8432,0.1568	-10666.64
0.7729,0.2271	-10675.69
0.7939,0.2061	-10676.52
0.7845,0.2155	-10668.91
0.8941,0.1059	-10660.04
0.9090,0.0910	-10655.33
0.8204,0.1796	-10671.86
0.7477,0.2523	-10682.06
0.8093,0.1907	-10680.74
0.7805,0.2195	-10675.47
0.9044,0.0956	-10655.45
0.9022,0.0978	-10659.95
0.8757,0.1243	-10660.41
0.7381,0.2619	-10684.33
0.8189,0.1811	-10668.87
0.7922,0.2078	-10672.53
0.9040,0.0960	-10666.67
0.8941,0.1059	-10655.77
0.8637,0.1363	-10666.32
0.7207,0.2793	-10678.96
0.8348,0.1652	-10670.09
0.7674,0.2326	-10677.06
0.9064,0.0936	-10666.74
0.8927,0.1073	-10668.53
0.9058,0.0942	-10662.20
0.7341,0.2659	-10684.39
0.8668,0.1332	-10658.80
0.7818,0.2182	-10674.16
0.8761,0.1239	-10666.27
0.9021,0.0979	-10664.40
0.9138,0.0862	-10662.30
0.7453,0.2547	-10677.81
0.8765,0.1235	-10660.39
0.7929,0.2071	-10668.48
0.8803,0.1197	-10676.26
0.9011,0.0989	-10657.75
0.9131,0.0869	-10659.94
0.7394,0.2606	-10674.93
0.8547,0.1453	-10669.97
0.7747,0.2253	-10671.93
0.8649,0.1351	-10677.45
0.9084,0.0916	-10655.34
0.9120,0.0880	-10669.29
0.7160,0.2840	-10681.99
0.8234,0.1766	-10671.82
0.7613,0.2387	-10674.92
0.8658,0.1342	-10668.17
0.9087,0.0913	-10657.63
0.9045,0.0955	-10657.69
0.7231,0.2769	-10679.80
0.7665,0.2335	-10681.84
0.7783,0.2217	-10678.04
0.8606,0.1394	-10669.99
0.9159,0.0841	-10664.73
0.9178,0.0822	-10662.38
0.7346,0.2654	-10675.22
0.8009,0.1991	-10677.84
0.7797,0.2203	-10675.49
0.8483,0.1517	-10664.81
0.9159,0.0841	-10652.79
0.9115,0.0885	-10657.60
0.7435,0.2565	-10683.21
0.8066,0.1934	-10673.56
0.7792,0.2208	-10675.51
0.8367,0.1633	-10673.34
0.9164,0.0836	-10664.75
0.9097,0.0903	-10650.69
0.7590,0.2410	-10678.46
0.8037,0.1963	-10677.84
0.7914,0.2086	-10676.55
0.8365,0.1635	-10676.60
0.9052,0.0948	-10671.22
0.9297,0.0703	-10652.43
0.7879,0.2121	-10681.86
0.8000,0.2000	-10675.07
0.7962,0.2038	-10675.13
0.8273,0.1727	-10671.77
0.9060,0.0940	-10666.73
0.9255,0.0745	-10657.56
0.8105,0.1895	-10669.14
0.8098,0.1902	-10674.96
0.8301,0.1699	-10670.16
0.8500,0.1500	-10668.24
0.9059,0.0941	-10657.67
0.9365,0.0635	-10646.94
0.8412,0.1588	-10673.36
0.8210,0.1790	-10682.52
0.8079,0.1921	-10672.10
0.8359,0.1641	-10668.45
0.9011,0.0989	-10657.75
0.9291,0.0709	-10657.59
0.8327,0.1673	-10674.94
0.8106,0.1894	-10673.50
0.7915,0.2085	-10675.22
0.8366,0.1634	-10674.97
0.8936,0.1064	-10666.43
0.9369,0.0631	-10663.11
0.8760,0.1240	-10664.32
0.7724,0.2276	-10676.93
0.8233,0.1767	-10676.44
0.8437,0.1563	-10664.94
0.8796,0.1204	-10666.28
0.9386,0.0614	-10657.75
0.8698,0.1302	-10658.68
0.8083,0.1917	-10670.65
0.8449,0.1551	-10671.69
0.8528,0.1472	-10671.73
0.8572,0.1428	-10673.56
0.9516,0.0484	-10661.22
0.8587,0.1413	-10668.18
0.8001,0.1999	-10663.98
0.8360,0.1640	-10671.71
0.8397,0.1603	-10658.44
0.8375,0.1625	-10668.42
0.9478,0.0522	-10649.36
0.8618,0.1382	-10668.17
0.8300,0.1700	-10676.50
0.8411,0.1589	-10671.69
0.8300,0.1700	-10670.16
0.8191,0.1809	-10676.41
0.9572,0.0428	-10649.26
0.8813,0.1187	-10660.27
0.8338,0.1662	-10670.10
0.8512,0.1488	-10668.23
0.8342,0.1658	-10671.72
0.8231,0.1769	-10667.21
0.9509,0.0491	-10652.27
0.8896,0.1104	-10670.54
0.8596,0.1404	-10666.36
0.8665,0.1335	-10670.04
0.8498,0.1502	-10669.97
0.8309,0.1691	-10671.74
0.9585,0.0415	-10646.12
0.8983,0.1017	-10651.28
0.8631,0.1369	-10668.17
0.8779,0.1221	-10672.19
0.8333,0.1667	-10671.72
0.8322,0.1678	-10668.53
0.9468,0.0532	-10649.38
0.8913,0.1087	-10655.87
0.8624,0.1376	-10668.17
0.8945,0.1055	-10664.31
0.8526,0.1474	-10666.46
0.8541,0.1459	-10664.67
0.9466,0.0534	-10655.13
0.8999,0.1001	-10659.97
0.8742,0.1258	-10668.21
0.9028,0.0972	-10664.41
0.8525,0.1475	-10661.20
0.8637,0.1363	-10666.32
0.9439,0.0561	-10652.26
0.8886,0.1114	-10658.05
0.8717,0.1283	-10664.36
0.9040,0.0960	-10659.94
0.8648,0.1352	-10664.45
0.8264,0.1736	-10667.10
0.9480,0.0520	-10646.45
0.8861,0.1139	-10654.01
0.8806,0.1194	-10666.28
0.8988,0.1012	-10668.72
0.8543,0.1457	-10662.89
0.7958,0.2042	-10684.66
0.9515,0.0485	-10658.23
0.8894,0.1106	-10664.28
0.8694,0.1306	-10662.49
0.8830,0.1170	-10668.32
0.8711,0.1289	-10672.01
0.8440,0.1560	-10661.56
0.9470,0.0530	-10646.49
0.9141,0.0859	-10664.67
0.8565,0.1435	-10664.61
0.8519,0.1481	-10673.47
0.8614,0.1386	-10660.86
0.8537,0.1463	-10673.50
0.9419,0.0581	-10660.63
0.9221,0.0779	-10667.44
0.8492,0.1508	-10675.16
0.8386,0.1614	-10674.99
0.8564,0.1436	-10666.40
0.8429,0.1571	-10670.01
0.9557,0.0443	-10646.19
0.9267,0.0733	-10652.50
0.8704,0.1296	-10668.18
0.8568,0.1432	-10664.61
0.8634,0.1366	-10662.63
0.8486,0.1514	-10666.53
0.9570,0.0430	-10649.26
0.9356,0.0644	-10665.71
0.8673,0.1327	-10660.66
0.8655,0.1345	-10658.86
0.8608,0.1392	-10664.53
0.8761,0.1239	-10676.05
0.9573,0.0427	-10646.15
0.9137,0.0863	-10652.86
0.8824,0.1176	-10658.23
0.8802,0.1198	-10658.30
0.8693,0.1307	-10681.44
0.8730,0.1270	-10660.49
0.9507,0.0493	-10649.31
0.9185,0.0815	-10652.71
0.8879,0.1121	-10664.28
0.8973,0.1027	-10668.67
0.8421,0.1579	-10670.01
0.8748,0.1252	-10658.49
0.9590,0.0410	-10652.41
0.9136,0.0864	-10655.22
0.8645,0.1355	-10668.17
0.8913,0.1087	-10662.18
0.8284,0.1716	-10668.61
0.8609,0.1391	-10675.46
0.9494,0.0506	-10646.40
0.9093,0.0907	-10662.24
0.8512,0.1488	-10668.23
0.8860,0.1140	-10658.12
0.8390,0.1610	-10666.74
0.8688,0.1312	-10658.72
0.9351,0.0649	-10663.01
0.9178,0.0822	-10669.62
0.8548,0.1452	-10666.42
0.9184,0.0816	-10655.14
0.8395,0.1605	-10663.42
0.8607,0.1393	-10666.35
0.9400,0.0600	-10666.04
0.9055,0.0945	-10671.23
0.8082,0.1918	-10682.16
0.9286,0.0714	-10660.15
0.8208,0.1792	-10668.81
0.8268,0.1732	-10679.60
0.9481,0.0519	-10660.97
0.9048,0.0952	-10662.19
0.8219,0.1781	-10674.90
0.9226,0.0774	-10652.60
0.7961,0.2039	-10673.77
0.8252,0.1748	-10664.04
0.9609,0.0391	-10655.66
0.8912,0.1088	-10653.77
0.8310,0.1690	-10671.74
0.9148,0.0852	-10650.45
0.8127,0.1873	-10670.53
0.7982,0.2018	-10673.72
0.9637,0.0363	-10646.00
0.8991,0.1009	-10664.35
0.8190,0.1810	-10673.39
0.9162,0.0838	-10664.74
0.8160,0.1840	-10668.96
0.8263,0.1737	-10667.11
0.9598,0.0402	-10649.25
0.9124,0.0876	-10669.31
0.8474,0.1526	-10663.13
0.9297,0.0703	-10652.43
0.8430,0.1570	-10666.65
0.8752,0.1248	-10658.48
0.9562,0.0438	-10649.26
0.8934,0.1066	-10655.79
0.8601,0.1399	-10666.36
0.9074,0.0926	-10657.65
0.8309,0.1691	-10670.15
0.8709,0.1291	-10677.73
0.9577,0.0423	-10655.49
0.9036,0.0964	-10668.90
0.8580,0.1420	-10666.38
0.8877,0.1123	-10656.01
0.8438,0.1562	-10666.63
0.8962,0.1038	-10668.63
0.9658,0.0342	-10649.30
0.8973,0.1027	-10668.67
0.8490,0.1510	-10657.89
0.9004,0.0996	-10657.77
0.8576,0.1424	-10668.18
0.9013,0.0987	-10657.75
0.9608,0.0392	-10652.46
0.9060,0.0940	-10657.67
0.8378,0.1622	-10676.62
0.9063,0.0937	-10662.20
0.8642,0.1358	-10658.91
0.8875,0.1125	-10664.28
0.9593,0.0407	-10649.25
0.8888,0.1112	-10655.96
0.8225,0.1775	-10662.63
0.8983,0.1017	-10655.63
0.8244,0.1756	-10671.81
0.8750,0.1250	-10658.49
0.9422,0.0578	-10660.64
0.8880,0.1120	-10670.49
0.8226,0.1774	-10671.83
0.9238,0.0762	-10662.55
0.8294,0.1706	-10671.75
0.9050,0.0950	-10662.19
0.9401,0.0599	-10652.28
0.9054,0.0946	-10664.46
0.8455,0.1545	-10666.59
0.9269,0.0731	-10662.65
0.8190,0.1810	-10668.87
0.9167,0.0833	-10659.96
0.9554,0.0446	-10661.52
