#isoforms=['ENSG00000110080.SE.2.A.up_ENSG00000110080.SE.2.A.SE1_ENSG00000110080.SE.2.A.dn','ENSG00000110080.SE.2.B.up_ENSG00000110080.SE.2.B.dn']	exon_lens=('ENSG00000110080.SE.2.A.up',61),('ENSG00000110080.SE.2.A.SE1',96),('ENSG00000110080.SE.2.A.dn',190),('ENSG00000110080.SE.2.B.up',61),('ENSG00000110080.SE.2.B.dn',190)	iters=5000	burn_in=500	lag=10	percent_accept=85.03	proposal_type=drift	counts=(0,0):95,(1,0):49,(1,1):320	assigned_counts=0:156,1:213	chrom=chr11	strand=+	mRNA_starts=126407574,126407574	mRNA_ends=126408496,126408496
sampled_psi	log_score
0.2765,0.7235	-2251.97
0.3706,0.6294	-2277.94
0.3131,0.6869	-2260.85
0.2968,0.7032	-2260.84
0.2971,0.7029	-2259.11
0.3136,0.6864	-2265.56
0.2871,0.7129	-2266.55
0.3540,0.6460	-2278.66
0.2941,0.7059	-2259.14
0.3179,0.6821	-2273.17
0.3123,0.6877	-2267.94
0.3454,0.6546	-2275.11
0.3121,0.6879	-2260.83
0.3395,0.6605	-2266.57
0.2939,0.7061	-2244.24
0.3541,0.6459	-2280.46
0.3803,0.6197	-2278.57
0.3625,0.6375	-2284.14
0.3155,0.6845	-2263.99
0.3590,0.6410	-2276.81
0.2847,0.7153	-2257.50
0.3654,0.6346	-2273.51
0.3855,0.6145	-2277.76
0.3322,0.6678	-2271.27
0.3111,0.6889	-2272.75
0.3639,0.6361	-2270.67
0.2573,0.7427	-2257.86
0.4064,0.5936	-2278.86
0.3698,0.6302	-2284.86
0.3544,0.6456	-2275.05
0.3613,0.6387	-2275.67
0.3662,0.6338	-2275.18
0.2316,0.7684	-2239.16
0.4482,0.5518	-2290.52
0.3090,0.6910	-2272.06
0.4066,0.5934	-2284.54
0.3229,0.6771	-2264.06
0.3482,0.6518	-2268.80
0.2438,0.7562	-2243.31
0.4013,0.5987	-2280.13
0.2936,0.7064	-2247.73
0.3975,0.6025	-2282.05
0.3075,0.6925	-2255.10
0.3724,0.6276	-2278.48
0.2721,0.7279	-2244.16
0.3768,0.6232	-2287.07
0.3033,0.6967	-2259.95
0.3619,0.6381	-2271.70
0.3263,0.6737	-2274.28
0.3462,0.6538	-2270.01
0.3004,0.6996	-2252.34
0.4016,0.5984	-2284.53
0.2915,0.7085	-2259.18
0.3999,0.6001	-2280.07
0.3498,0.6502	-2276.92
0.3212,0.6788	-2260.29
0.3350,0.6650	-2258.90
0.3887,0.6113	-2272.91
0.2892,0.7108	-2259.22
0.3562,0.6438	-2280.38
0.3397,0.6603	-2277.88
0.3226,0.6774	-2262.57
0.3547,0.6453	-2267.87
0.3678,0.6322	-2276.84
0.2975,0.7025	-2265.99
0.3942,0.6058	-2285.44
0.3736,0.6264	-2267.64
0.3189,0.6811	-2264.01
0.3340,0.6660	-2265.73
0.3788,0.6212	-2281.02
0.2745,0.7255	-2240.33
0.3945,0.6055	-2277.30
0.3404,0.6596	-2271.90
0.2752,0.7248	-2251.99
0.3521,0.6479	-2272.00
0.3505,0.6495	-2268.89
0.2801,0.7199	-2255.73
0.4032,0.5968	-2279.43
0.3560,0.6440	-2281.57
0.2889,0.7111	-2253.82
0.3199,0.6801	-2272.32
0.3859,0.6141	-2276.85
0.2717,0.7283	-2250.07
0.3402,0.6598	-2273.22
0.3540,0.6460	-2275.65
0.2632,0.7368	-2249.20
0.2565,0.7435	-2238.77
0.4004,0.5996	-2277.26
0.2957,0.7043	-2262.59
0.3509,0.6491	-2267.67
0.3396,0.6604	-2269.90
0.2708,0.7292	-2266.92
0.2986,0.7014	-2252.28
0.4079,0.5921	-2281.95
0.2969,0.7031	-2248.77
0.3584,0.6416	-2277.39
0.3428,0.6572	-2268.64
0.2397,0.7603	-2236.56
0.3096,0.6904	-2264.81
0.3951,0.6049	-2276.05
0.3067,0.6933	-2268.12
0.3539,0.6461	-2277.45
0.3390,0.6610	-2265.89
0.2691,0.7309	-2249.10
0.3351,0.6649	-2266.45
0.3376,0.6624	-2266.52
0.3409,0.6591	-2273.22
0.3173,0.6827	-2267.06
0.2914,0.7086	-2267.17
0.2632,0.7368	-2240.97
0.3193,0.6807	-2282.18
0.3170,0.6830	-2264.77
0.3634,0.6366	-2270.64
0.2730,0.7270	-2252.02
0.2573,0.7427	-2265.28
0.2793,0.7207	-2259.54
0.2801,0.7199	-2258.56
0.3493,0.6507	-2275.69
0.3240,0.6760	-2272.17
0.2964,0.7036	-2260.85
0.2528,0.7472	-2251.74
0.2868,0.7132	-2262.01
0.2875,0.7125	-2271.97
0.2922,0.7078	-2260.05
0.3324,0.6676	-2262.20
0.2682,0.7318	-2249.11
0.2689,0.7311	-2258.11
0.3042,0.6958	-2245.06
0.3019,0.6981	-2250.73
0.2823,0.7177	-2254.76
0.3365,0.6635	-2262.41
0.2811,0.7189	-2265.10
0.3212,0.6788	-2277.50
0.3420,0.6580	-2269.93
0.2810,0.7190	-2264.17
0.3061,0.6939	-2254.24
0.3617,0.6383	-2272.26
0.2908,0.7092	-2261.86
0.3160,0.6840	-2267.08
0.3666,0.6334	-2277.92
0.3472,0.6528	-2278.24
0.3162,0.6838	-2276.33
0.3363,0.6637	-2274.64
0.2806,0.7194	-2255.72
0.3067,0.6933	-2264.05
0.3313,0.6687	-2267.07
0.3372,0.6628	-2261.10
0.2619,0.7381	-2239.91
0.3075,0.6925	-2264.85
0.3281,0.6719	-2263.45
0.2986,0.7014	-2252.28
0.3230,0.6770	-2261.10
0.3185,0.6815	-2254.88
0.3037,0.6963	-2258.29
0.3709,0.6291	-2275.83
0.3238,0.6762	-2268.49
0.2688,0.7312	-2251.11
0.3631,0.6369	-2275.12
0.3423,0.6577	-2275.16
0.3019,0.6981	-2270.01
0.3712,0.6288	-2278.47
0.2955,0.7045	-2266.08
0.2962,0.7038	-2263.45
0.3351,0.6649	-2273.99
0.3859,0.6141	-2276.38
0.3343,0.6657	-2272.63
0.3459,0.6541	-2266.82
0.3148,0.6852	-2252.32
0.3047,0.6953	-2264.08
0.3249,0.6751	-2275.07
0.4035,0.5965	-2288.05
0.2672,0.7328	-2247.11
0.3387,0.6613	-2279.93
0.3438,0.6562	-2277.07
0.2542,0.7458	-2255.96
0.2978,0.7022	-2252.25
0.4506,0.5494	-2286.72
0.2988,0.7012	-2272.75
0.3126,0.6874	-2272.66
0.3596,0.6404	-2284.89
0.2620,0.7380	-2260.62
0.3087,0.6913	-2260.80
0.4603,0.5397	-2288.70
0.3190,0.6810	-2276.90
0.3180,0.6820	-2261.72
0.3472,0.6528	-2274.45
0.2209,0.7791	-2230.99
0.3176,0.6824	-2264.00
0.4452,0.5548	-2288.15
0.2924,0.7076	-2266.23
0.2965,0.7035	-2243.57
0.3095,0.6905	-2256.79
0.3117,0.6883	-2271.13
0.3313,0.6687	-2269.88
0.3972,0.6028	-2285.38
0.3087,0.6913	-2265.63
0.3037,0.6963	-2265.76
0.3339,0.6661	-2267.80
0.2919,0.7081	-2260.06
0.3897,0.6103	-2286.00
0.3960,0.6040	-2282.03
0.2985,0.7015	-2256.55
0.3045,0.6955	-2267.39
0.3694,0.6306	-2267.24
0.2912,0.7088	-2266.30
0.4020,0.5980	-2281.75
0.4320,0.5680	-2286.31
0.2900,0.7100	-2273.53
0.2995,0.7005	-2265.05
0.3715,0.6285	-2283.20
0.3327,0.6673	-2273.36
0.4051,0.5949	-2284.15
0.3849,0.6151	-2291.81
0.2824,0.7176	-2262.22
0.3245,0.6755	-2275.09
0.3278,0.6722	-2274.93
0.3196,0.6804	-2274.60
0.4294,0.5706	-2284.25
0.3807,0.6193	-2288.32
0.2624,0.7376	-2237.85
0.3161,0.6839	-2269.40
0.3313,0.6687	-2253.72
0.3524,0.6476	-2272.61
0.4194,0.5806	-2280.85
0.3991,0.6009	-2285.35
0.2604,0.7396	-2249.27
0.2945,0.7055	-2255.64
0.3447,0.6553	-2269.34
0.3353,0.6647	-2264.40
0.4343,0.5657	-2288.76
0.4014,0.5986	-2282.93
0.2940,0.7060	-2249.50
0.2754,0.7246	-2251.02
0.3361,0.6639	-2279.41
0.3180,0.6820	-2264.77
0.4258,0.5742	-2288.85
0.3743,0.6257	-2271.81
0.3136,0.6864	-2262.43
0.2745,0.7255	-2264.63
0.2728,0.7272	-2251.04
0.2771,0.7229	-2246.21
0.3570,0.6430	-2272.11
0.3697,0.6303	-2274.20
0.3104,0.6896	-2258.42
0.2648,0.7352	-2256.31
0.3073,0.6927	-2252.66
0.2831,0.7169	-2254.75
0.3725,0.6275	-2277.43
0.3530,0.6470	-2265.96
0.3196,0.6804	-2264.02
0.2913,0.7087	-2257.40
0.3329,0.6671	-2270.57
0.3099,0.6901	-2262.41
0.3605,0.6395	-2271.07
0.3357,0.6643	-2271.24
0.2943,0.7057	-2262.64
0.2746,0.7254	-2251.99
0.3155,0.6845	-2267.09
0.3309,0.6691	-2271.99
0.3635,0.6365	-2274.57
0.3381,0.6619	-2265.19
0.3326,0.6674	-2258.03
0.3129,0.6871	-2272.65
0.3120,0.6880	-2267.95
0.3541,0.6459	-2266.63
0.3657,0.6343	-2275.72
0.3257,0.6743	-2263.39
0.3460,0.6540	-2268.10
0.3144,0.6856	-2267.11
0.2909,0.7091	-2252.95
0.3531,0.6469	-2271.42
0.2794,0.7206	-2246.27
0.3001,0.6999	-2263.34
0.3405,0.6595	-2273.88
0.2835,0.7165	-2266.80
0.2887,0.7113	-2262.84
0.3321,0.6679	-2271.97
0.2742,0.7258	-2249.08
0.3276,0.6724	-2279.97
0.3282,0.6718	-2265.60
0.2866,0.7134	-2258.37
0.2726,0.7274	-2258.90
0.3402,0.6598	-2267.26
0.2892,0.7108	-2245.73
0.3201,0.6799	-2277.58
0.3398,0.6602	-2265.26
0.3155,0.6845	-2276.39
0.2603,0.7397	-2247.19
0.3389,0.6611	-2271.90
0.2931,0.7069	-2272.36
0.3185,0.6815	-2255.64
0.3263,0.6737	-2278.63
0.3194,0.6806	-2267.04
0.2894,0.7106	-2241.25
0.3328,0.6672	-2266.40
0.2962,0.7038	-2272.10
0.3097,0.6903	-2264.01
0.3175,0.6825	-2254.05
0.3067,0.6933	-2264.05
0.2347,0.7653	-2241.39
0.3494,0.6506	-2270.09
0.2720,0.7280	-2263.85
0.3129,0.6871	-2265.57
0.3255,0.6745	-2275.77
0.3187,0.6813	-2267.81
0.2564,0.7436	-2231.31
0.3608,0.6392	-2280.81
0.2795,0.7205	-2268.05
0.3402,0.6598	-2269.91
0.3428,0.6572	-2273.85
0.2883,0.7117	-2242.07
0.2464,0.7536	-2251.04
0.3395,0.6605	-2277.89
0.2685,0.7315	-2238.08
0.3217,0.6783	-2270.76
0.3275,0.6725	-2259.12
0.3067,0.6933	-2250.18
0.2562,0.7438	-2239.83
0.3833,0.6167	-2282.92
0.2799,0.7201	-2248.17
0.3066,0.6934	-2266.50
0.3026,0.6974	-2261.62
0.3434,0.6566	-2279.68
0.2929,0.7071	-2242.41
0.3994,0.6006	-2282.09
0.2622,0.7378	-2254.40
0.3095,0.6905	-2256.79
0.3195,0.6805	-2264.02
0.3164,0.6836	-2258.60
0.2889,0.7111	-2256.53
0.3915,0.6085	-2278.00
0.2808,0.7192	-2254.78
0.2819,0.7181	-2256.63
0.2991,0.7009	-2263.36
0.3094,0.6906	-2269.64
0.2891,0.7109	-2252.92
0.3343,0.6657	-2276.07
0.2922,0.7078	-2268.02
0.2817,0.7183	-2266.93
0.3045,0.6955	-2257.48
0.3459,0.6541	-2265.54
0.2938,0.7062	-2252.13
0.3272,0.6728	-2273.52
0.3154,0.6846	-2264.77
0.3317,0.6683	-2278.28
0.3494,0.6506	-2275.68
0.3525,0.6475	-2270.18
0.3090,0.6910	-2264.82
0.3542,0.6458	-2287.66
0.3048,0.6952	-2250.06
0.3598,0.6402	-2282.57
0.3684,0.6316	-2283.86
0.3501,0.6499	-2274.44
0.3060,0.6940	-2265.69
0.3465,0.6535	-2271.92
0.2723,0.7277	-2263.82
0.3574,0.6426	-2274.47
0.4083,0.5917	-2283.81
0.4132,0.5868	-2281.12
0.3385,0.6615	-2273.91
0.3718,0.6282	-2282.67
0.3599,0.6401	-2274.50
0.3675,0.6325	-2280.10
0.4281,0.5719	-2287.94
0.3800,0.6200	-2270.73
0.3049,0.6951	-2255.01
0.3532,0.6468	-2269.00
0.4053,0.5947	-2282.23
0.3937,0.6063	-2275.95
0.4404,0.5596	-2285.42
0.3929,0.6071	-2278.07
0.3520,0.6480	-2276.27
0.3377,0.6623	-2276.62
0.3620,0.6380	-2282.47
0.3819,0.6181	-2289.20
0.3764,0.6236	-2281.54
0.3841,0.6159	-2281.49
0.3492,0.6508	-2275.06
0.3181,0.6819	-2273.92
0.3654,0.6346	-2274.61
0.3778,0.6222	-2277.53
0.3680,0.6320	-2269.81
0.3786,0.6214	-2280.53
0.3490,0.6510	-2270.08
0.3174,0.6826	-2254.04
0.3715,0.6285	-2280.57
0.3862,0.6138	-2281.96
0.3703,0.6297	-2275.81
0.3926,0.6074	-2277.62
0.3500,0.6500	-2271.34
0.3201,0.6799	-2278.34
0.4018,0.5982	-2276.57
0.3532,0.6468	-2273.23
0.4130,0.5870	-2281.81
0.4107,0.5893	-2287.11
0.3993,0.6007	-2283.72
0.3276,0.6724	-2267.03
0.4005,0.5995	-2279.29
0.3556,0.6444	-2273.86
0.3746,0.6254	-2283.10
0.3624,0.6376	-2284.15
0.3550,0.6450	-2279.23
0.3119,0.6881	-2270.33
0.3571,0.6429	-2273.88
0.3947,0.6053	-2278.59
0.3677,0.6323	-2274.67
0.3754,0.6246	-2271.37
0.3122,0.6878	-2260.05
0.3210,0.6790	-2279.02
0.3293,0.6707	-2272.74
0.3923,0.6077	-2282.86
0.3300,0.6700	-2274.14
0.3773,0.6227	-2275.02
0.3161,0.6839	-2263.22
0.3606,0.6394	-2272.22
0.2897,0.7103	-2249.34
0.3543,0.6457	-2269.64
0.3126,0.6874	-2275.03
0.3826,0.6174	-2285.80
0.3788,0.6212	-2275.58
0.3383,0.6617	-2269.89
0.2833,0.7167	-2246.39
0.3575,0.6425	-2273.89
0.3031,0.6969	-2256.62
0.4272,0.5728	-2285.89
0.3401,0.6599	-2263.28
0.3517,0.6483	-2271.38
0.2917,0.7083	-2252.08
0.4116,0.5884	-2285.67
0.3418,0.6582	-2273.21
0.4141,0.5859	-2285.68
0.3456,0.6544	-2270.64
0.3423,0.6577	-2266.02
0.3060,0.6940	-2263.24
0.4295,0.5705	-2285.96
0.3184,0.6816	-2264.01
0.3943,0.6057	-2282.43
0.3507,0.6493	-2268.90
0.2968,0.7032	-2261.70
0.2887,0.7113	-2258.33
0.4195,0.5805	-2283.46
0.2773,0.7227	-2254.84
0.3332,0.6668	-2269.18
0.3963,0.6037	-2282.87
0.3184,0.6816	-2266.29
0.3353,0.6647	-2265.09
0.3636,0.6364	-2283.53
0.2942,0.7058	-2250.39
0.3048,0.6952	-2272.32
0.4249,0.5751	-2287.35
0.3270,0.6730	-2264.14
0.2938,0.7062	-2262.65
0.3402,0.6598	-2272.56
0.3044,0.6956	-2256.65
0.3225,0.6775	-2263.31
0.4329,0.5671	-2279.32
0.3260,0.6740	-2271.38
0.3298,0.6702	-2274.85
0.2946,0.7054	-2264.37
0.3057,0.6943	-2255.86
0.3647,0.6353	-2273.48
0.3847,0.6153	-2277.74
0.3360,0.6640	-2280.78
0.3464,0.6536	-2268.75
0.3167,0.6833	-2261.69
0.3383,0.6617	-2276.60
0.4110,0.5890	-2285.31
0.3785,0.6215	-2285.49
0.3554,0.6446	-2263.14
0.3598,0.6402	-2272.77
0.3800,0.6200	-2278.57
0.3571,0.6429	-2266.24
0.4027,0.5973	-2284.13
0.3936,0.6064	-2279.40
0.3921,0.6079	-2281.10
0.3170,0.6830	-2277.81
0.4126,0.5874	-2278.96
0.3384,0.6616	-2267.21
0.4124,0.5876	-2282.49
0.3688,0.6312	-2281.69
0.3631,0.6369	-2276.81
0.2765,0.7235	-2250.05
0.4101,0.5899	-2283.85
0.3878,0.6122	-2279.22
0.3602,0.6398	-2276.81
0.3015,0.6985	-2273.39
0.3594,0.6406	-2269.87
0.3232,0.6768	-2265.54
0.4445,0.5555	-2289.03
0.3610,0.6390	-2284.80
0.3238,0.6762	-2268.49
0.3273,0.6727	-2269.19
0.3461,0.6539	-2273.19
0.3634,0.6366	-2270.64
0.4004,0.5996	-2272.82
0.3038,0.6962	-2264.93
0.3183,0.6817	-2264.01
0.3332,0.6668	-2272.65
0.3677,0.6323	-2278.47
0.3973,0.6027	-2282.88
0.4007,0.5993	-2279.30
0.3271,0.6729	-2279.29
0.2954,0.7046	-2261.73
0.3295,0.6705	-2272.73
0.3813,0.6187	-2272.30
0.3612,0.6388	-2281.37
0.3231,0.6769	-2276.64
0.2832,0.7168	-2263.10
0.3099,0.6901	-2259.21
0.3212,0.6788	-2267.78
0.3881,0.6119	-2281.96
0.3451,0.6549	-2261.01
0.3668,0.6332	-2272.46
0.2912,0.7088	-2260.96
0.3590,0.6410	-2278.55
0.3832,0.6168	-2278.64
0.3645,0.6355	-2269.59
0.3319,0.6681	-2267.78
0.4013,0.5987	-2289.33
0.2639,0.7361	-2251.24
0.4127,0.5873	-2282.14
0.3719,0.6281	-2281.09
0.3895,0.6105	-2280.62
0.3703,0.6297	-2274.75
0.3108,0.6892	-2270.37
0.2977,0.7023	-2263.40
0.4468,0.5532	-2289.05
0.3396,0.6604	-2277.22
0.3669,0.6331	-2274.10
0.3359,0.6641	-2270.56
0.2827,0.7173	-2256.61
0.2840,0.7160	-2270.46
0.3826,0.6174	-2281.97
0.3520,0.6480	-2268.34
0.3511,0.6489	-2271.98
0.3473,0.6527	-2261.84
0.2530,0.7470	-2232.24
0.3135,0.6865	-2270.26
0.3862,0.6138	-2277.32
0.3028,0.6972	-2268.29
0.3063,0.6937	-2265.69
0.3136,0.6864	-2259.29
0.2570,0.7430	-2255.76
0.3249,0.6751	-2265.56
0.3398,0.6602	-2275.22
0.3119,0.6881	-2251.34
0.2808,0.7192	-2251.01
0.3483,0.6517	-2279.46
0.2454,0.7546	-2236.51
0.3164,0.6836	-2262.45
0.3438,0.6562	-2271.26
0.3173,0.6827	-2259.40
0.2821,0.7179	-2265.04
0.3167,0.6833	-2258.61
0.2679,0.7321	-2262.19
0.2762,0.7238	-2255.83
0.3290,0.6710	-2269.18
0.3141,0.6859	-2260.87
0.2846,0.7154	-2255.66
0.3185,0.6815	-2262.49
0.3692,0.6308	-2282.75
0.2759,0.7241	-2259.70
0.3360,0.6640	-2267.83
0.2844,0.7156	-2271.35
0.2799,0.7201	-2259.52
0.3012,0.6988	-2249.85
0.3670,0.6330	-2279.01
0.2783,0.7217	-2260.54
0.3986,0.6014	-2282.48
0.3012,0.6988	-2249.85
0.3085,0.6915	-2272.90
0.2719,0.7281	-2252.04
0.3982,0.6018	-2277.93
0.2742,0.7258	-2256.87
0.3780,0.6220	-2278.53
0.3264,0.6736	-2271.37
0.3039,0.6961	-2257.47
0.2709,0.7291	-2262.95
0.4060,0.5940	-2279.59
0.2500,0.7500	-2256.30
0.3231,0.6769	-2267.76
0.3357,0.6643	-2271.24
0.2777,0.7223	-2253.88
0.2538,0.7462	-2250.60
0.3917,0.6083	-2272.73
0.2775,0.7225	-2251.01
0.3417,0.6583	-2262.71
0.3028,0.6972	-2263.29
0.2868,0.7132	-2263.83
0.2534,0.7466	-2243.06
0.3922,0.6078	-2280.67
0.2250,0.7750	-2243.23
0.3517,0.6483	-2267.71
0.3201,0.6799	-2277.58
0.2708,0.7292	-2262.96
0.2703,0.7297	-2242.14
0.3979,0.6021	-2280.82
0.2290,0.7710	-2238.07
0.3210,0.6790	-2261.04
0.3291,0.6709	-2254.22
0.2802,0.7198	-2260.45
0.2704,0.7296	-2248.10
0.3923,0.6077	-2278.48
0.2107,0.7893	-2249.98
0.2987,0.7013	-2257.40
0.3571,0.6429	-2267.41
0.3083,0.6917	-2264.03
0.2691,0.7309	-2251.10
0.4047,0.5953	-2286.08
0.2186,0.7814	-2232.35
0.2661,0.7339	-2258.27
0.3585,0.6415	-2278.56
0.3225,0.6775	-2270.74
0.3008,0.6992	-2272.60
0.3516,0.6484	-2268.32
0.2107,0.7893	-2222.25
0.2701,0.7299	-2249.09
0.3079,0.6921	-2254.31
0.2797,0.7203	-2256.69
0.2618,0.7382	-2255.45
0.3791,0.6209	-2283.49
0.2537,0.7463	-2254.93
0.2708,0.7292	-2243.14
0.2985,0.7015	-2280.46
0.2611,0.7389	-2248.21
0.2508,0.7492	-2240.91
0.3948,0.6052	-2281.16
0.2659,0.7341	-2261.33
0.2470,0.7530	-2239.86
0.3251,0.6749	-2266.29
0.2721,0.7279	-2244.16
0.2723,0.7277	-2252.03
0.3939,0.6061	-2279.41
0.2785,0.7215	-2261.48
0.2681,0.7319	-2252.13
0.3179,0.6821	-2263.24
0.2727,0.7273	-2246.14
0.2427,0.7573	-2243.35
0.3616,0.6384	-2281.35
0.2683,0.7317	-2251.12
0.2680,0.7320	-2257.15
0.3532,0.6468	-2282.31
0.2840,0.7160	-2253.81
0.2612,0.7388	-2247.17
0.3429,0.6571	-2272.55
0.2880,0.7120	-2261.97
0.2916,0.7084	-2256.51
0.3660,0.6340	-2278.47
0.2803,0.7197	-2249.12
0.3064,0.6936	-2264.87
0.3621,0.6379	-2276.81
0.2935,0.7065	-2264.42
0.2831,0.7169	-2251.96
0.3332,0.6668	-2253.22
0.2879,0.7121	-2259.25
0.3082,0.6918	-2264.84
0.3144,0.6856	-2263.99
0.2956,0.7044	-2258.26
0.2790,0.7210	-2247.21
0.3548,0.6452	-2273.25
0.2896,0.7104	-2269.98
0.3135,0.6865	-2259.29
0.2982,0.7018	-2262.53
0.2560,0.7440	-2234.49
0.2941,0.7059	-2255.64
0.3355,0.6645	-2271.93
0.3201,0.6799	-2254.98
0.3377,0.6623	-2272.58
0.2854,0.7146	-2263.91
0.2817,0.7183	-2253.83
0.2860,0.7140	-2260.22
0.3268,0.6732	-2259.80
0.2799,0.7201	-2246.28
0.3101,0.6899	-2259.21
0.2900,0.7100	-2254.73
0.2978,0.7022	-2263.40
0.2738,0.7262	-2258.83
0.3507,0.6493	-2273.82
0.2600,0.7400	-2246.15
0.3425,0.6575	-2281.03
0.2934,0.7066	-2261.79
0.3295,0.6705	-2270.60
0.2543,0.7457	-2253.80
0.3393,0.6607	-2273.23
0.3171,0.6829	-2262.46
0.3138,0.6862	-2257.73
0.2934,0.7066	-2253.00
0.3140,0.6860	-2264.77
0.3138,0.6862	-2258.51
0.3458,0.6542	-2270.64
0.3713,0.6287	-2278.47
0.2926,0.7074	-2257.39
0.3012,0.6988	-2254.90
0.2901,0.7099	-2261.89
0.3648,0.6352	-2274.60
0.4130,0.5870	-2282.16
0.3289,0.6711	-2269.90
0.2761,0.7239	-2253.90
0.2570,0.7430	-2247.27
0.2960,0.7040	-2263.45
0.3677,0.6323	-2278.47
0.4262,0.5738	-2289.14
0.3213,0.6787	-2270.77
0.3048,0.6952	-2266.55
0.2383,0.7617	-2241.23
0.2911,0.7089	-2250.28
0.3441,0.6559	-2267.39
0.4373,0.5627	-2284.73
0.3408,0.6592	-2267.94
0.3061,0.6939	-2259.96
0.2915,0.7085	-2272.50
0.2719,0.7281	-2249.08
0.2977,0.7023	-2258.25
0.4489,0.5511	-2284.15
0.2968,0.7032	-2263.43
0.3662,0.6338	-2280.12
0.2783,0.7217	-2241.48
0.3038,0.6962	-2271.56
0.3185,0.6815	-2272.38
0.4351,0.5649	-2287.45
0.3278,0.6722	-2265.60
0.3849,0.6151	-2273.99
0.2841,0.7159	-2249.19
0.2868,0.7132	-2265.65
0.3469,0.6531	-2266.86
0.4233,0.5767	-2286.42
0.3064,0.6936	-2267.32
0.3531,0.6469	-2267.18
0.2762,0.7238	-2248.12
0.2338,0.7662	-2243.81
0.3262,0.6738	-2267.75
0.4219,0.5781	-2284.20
0.3161,0.6839	-2262.45
0.3279,0.6721	-2274.21
0.2629,0.7371	-2252.30
0.2531,0.7469	-2244.15
0.3202,0.6798	-2258.75
0.3574,0.6426	-2266.26
0.2869,0.7131	-2251.99
0.3547,0.6453	-2274.45
0.2966,0.7034	-2258.25
0.2754,0.7246	-2253.92
0.3420,0.6580	-2275.82
0.3837,0.6163	-2270.60
0.3070,0.6930	-2271.37
0.3718,0.6282	-2274.28
0.2663,0.7337	-2245.09
0.3182,0.6818	-2259.43
0.3261,0.6739	-2255.41
0.3002,0.6998	-2249.80
0.3212,0.6788	-2262.54
0.3588,0.6412	-2273.91
0.2842,0.7158	-2260.28
0.3231,0.6769	-2278.12
0.3816,0.6184	-2283.91
0.3520,0.6480	-2266.51
0.3091,0.6909	-2258.39
0.3571,0.6429	-2271.53
0.3004,0.6996	-2257.42
0.3385,0.6615	-2276.59
0.4190,0.5810	-2283.11
0.2896,0.7104	-2260.11
0.3125,0.6875	-2253.74
0.3681,0.6319	-2281.17
0.3319,0.6681	-2271.98
0.3032,0.6968	-2261.61
0.3938,0.6062	-2286.31
0.3019,0.6981	-2274.20
0.3222,0.6778	-2271.49
0.3598,0.6402	-2280.26
0.3202,0.6798	-2272.31
0.3162,0.6838	-2258.59
0.3947,0.6053	-2280.30
0.2653,0.7347	-2241.01
0.3141,0.6859	-2244.47
0.3836,0.6164	-2280.54
0.2676,0.7324	-2254.16
0.3035,0.6965	-2262.44
0.4038,0.5962	-2280.24
0.3141,0.6859	-2268.68
0.2882,0.7118	-2250.20
0.3776,0.6224	-2269.03
0.2804,0.7196	-2241.59
0.2906,0.7094	-2254.73
0.3226,0.6774	-2263.31
0.3695,0.6305	-2273.66
0.2865,0.7135	-2249.25
0.3173,0.6827	-2278.56
0.3312,0.6688	-2269.18
0.3498,0.6502	-2279.40
0.2786,0.7214	-2251.96
0.3690,0.6310	-2275.25
0.3214,0.6786	-2264.04
0.3722,0.6278	-2281.61
0.3244,0.6756	-2271.42
0.3443,0.6557	-2279.64
0.2764,0.7236	-2265.45
0.3892,0.6108	-2284.67
0.3247,0.6753	-2264.83
0.3624,0.6376	-2273.42
0.3332,0.6668	-2268.49
0.3591,0.6409	-2280.86
0.2544,0.7456	-2250.57
0.3679,0.6321	-2273.60
0.3148,0.6852	-2265.55
0.3650,0.6350	-2275.16
0.3202,0.6798	-2270.05
0.3707,0.6293	-2278.47
0.2634,0.7366	-2256.39
0.3848,0.6152	-2278.68
0.3196,0.6804	-2267.04
0.3980,0.6020	-2277.51
0.2984,0.7016	-2269.37
0.3528,0.6472	-2282.94
0.2859,0.7141	-2260.22
0.3579,0.6421	-2270.97
0.3557,0.6443	-2269.11
0.3790,0.6210	-2278.55
0.2973,0.7027	-2262.56
0.3677,0.6323	-2280.64
0.2815,0.7185	-2239.77
0.3379,0.6621	-2267.87
0.3608,0.6392	-2281.38
0.3919,0.6081	-2282.86
0.3803,0.6197	-2269.79
0.3651,0.6349	-2273.50
0.2935,0.7065	-2254.75
0.3088,0.6912	-2260.80
0.3753,0.6247	-2272.38
0.4700,0.5300	-2287.30
0.3854,0.6146	-2284.76
0.3270,0.6730	-2260.54
0.2796,0.7204	-2251.96
0.2522,0.7478	-2238.73
0.3752,0.6248	-2274.42
0.3974,0.6026	-2281.22
0.4672,0.5328	-2289.98
0.3102,0.6898	-2252.82
0.2782,0.7218	-2240.52
0.2315,0.7685	-2231.96
0.4055,0.5945	-2282.62
0.3822,0.6178	-2275.73
0.4070,0.5930	-2284.17
0.2974,0.7026	-2255.67
0.2772,0.7228	-2258.67
