#isoforms=['ENSG00000101294.SE.1.A.up_ENSG00000101294.SE.1.A.SE1_ENSG00000101294.SE.1.A.dn','ENSG00000101294.SE.1.B.up_ENSG00000101294.SE.1.B.dn']	exon_lens=('ENSG00000101294.SE.1.A.up',99),('ENSG00000101294.SE.1.A.SE1',376),('ENSG00000101294.SE.1.A.dn',89),('ENSG00000101294.SE.1.B.up',99),('ENSG00000101294.SE.1.B.dn',89)	iters=5000	burn_in=500	lag=10	percent_accept=91.92	proposal_type=drift	counts=(0,0):20,(1,0):36,(1,1):66	assigned_counts=0:48,1:54	chrom=chr20	strand=+	mRNA_starts=31527484,31527484	mRNA_ends=31545035,31545035
sampled_psi	log_score
0.3586,0.6414	-659.73
0.2234,0.7766	-650.88
0.2659,0.7341	-658.39
0.2772,0.7228	-659.26
0.2330,0.7670	-650.85
0.2655,0.7345	-659.42
0.3097,0.6903	-652.06
0.1898,0.8102	-644.39
0.3386,0.6614	-654.40
0.2463,0.7537	-646.46
0.2628,0.7372	-651.21
0.2458,0.7542	-657.65
0.3185,0.6815	-658.62
0.2646,0.7354	-650.23
0.3421,0.6579	-655.26
0.2271,0.7729	-654.53
0.2720,0.7280	-648.49
0.2520,0.7480	-652.10
0.2671,0.7329	-658.38
0.2745,0.7255	-656.37
0.3225,0.6775	-660.92
0.2181,0.7819	-644.54
0.2973,0.7027	-654.90
0.2800,0.7200	-655.46
0.2489,0.7511	-652.07
0.2781,0.7219	-650.67
0.2655,0.7345	-653.31
0.2261,0.7739	-650.86
0.2715,0.7285	-656.36
0.2590,0.7410	-656.39
0.2454,0.7546	-650.93
0.2435,0.7565	-647.50
0.2620,0.7380	-653.27
0.2166,0.7834	-649.66
0.3082,0.6918	-650.37
0.3157,0.6843	-661.66
0.2610,0.7390	-640.76
0.2603,0.7397	-653.25
0.2964,0.7036	-662.65
0.2253,0.7747	-658.28
0.2720,0.7280	-652.43
0.2823,0.7177	-652.69
0.2304,0.7696	-647.23
0.2664,0.7336	-656.36
0.2314,0.7686	-653.25
0.2339,0.7661	-649.67
0.2957,0.7043	-653.12
0.2559,0.7441	-648.94
0.2306,0.7694	-643.62
0.2577,0.7423	-656.40
0.2563,0.7437	-660.67
0.2127,0.7873	-653.62
0.2644,0.7356	-655.34
0.2564,0.7436	-653.21
0.2112,0.7888	-654.98
0.2693,0.7307	-652.37
0.2468,0.7532	-662.10
0.1739,0.8261	-649.36
0.2516,0.7484	-651.00
0.2435,0.7565	-654.31
0.2106,0.7894	-644.43
0.2227,0.7773	-643.38
0.2286,0.7714	-658.15
0.2165,0.7835	-654.80
0.2520,0.7480	-652.10
0.2739,0.7261	-656.37
0.2531,0.7469	-652.11
0.2551,0.7449	-651.06
0.2267,0.7733	-654.54
0.2375,0.7625	-650.86
0.2526,0.7474	-658.61
0.2369,0.7631	-649.69
0.2832,0.7168	-652.71
0.2628,0.7372	-656.37
0.2003,0.7997	-651.28
0.1887,0.8113	-653.16
0.2719,0.7281	-654.39
0.2322,0.7678	-648.46
0.3268,0.6732	-655.17
0.2365,0.7635	-657.89
0.2067,0.7933	-641.70
0.2062,0.7938	-644.39
0.2868,0.7132	-659.20
0.2601,0.7399	-651.15
0.3158,0.6842	-663.98
0.2321,0.7679	-642.48
0.2342,0.7658	-655.59
0.2025,0.7975	-655.33
0.2761,0.7239	-658.31
0.2706,0.7294	-655.37
0.2969,0.7031	-661.78
0.2835,0.7165	-658.29
0.2326,0.7674	-654.43
0.2144,0.7856	-656.17
0.2851,0.7149	-655.53
0.2265,0.7735	-652.09
0.2571,0.7429	-656.40
0.2841,0.7159	-658.29
0.2407,0.7593	-655.48
0.2134,0.7866	-649.68
0.2466,0.7534	-646.47
0.2091,0.7909	-640.42
0.2799,0.7201	-655.46
0.2832,0.7168	-655.50
0.2377,0.7623	-652.03
0.2295,0.7705	-652.06
0.2540,0.7460	-645.65
0.2393,0.7607	-657.81
0.2804,0.7196	-651.69
0.2522,0.7478	-651.01
0.2369,0.7631	-648.52
0.2398,0.7602	-652.03
0.2769,0.7231	-650.63
0.2561,0.7439	-647.88
0.2958,0.7042	-651.39
0.2268,0.7732	-653.31
0.2264,0.7736	-652.09
0.2836,0.7164	-654.58
0.3001,0.6999	-657.51
0.2443,0.7557	-658.82
0.2908,0.7092	-659.19
0.2190,0.7810	-656.00
0.1997,0.8003	-648.52
0.2780,0.7220	-658.30
0.2747,0.7253	-657.34
0.2891,0.7109	-651.09
0.2560,0.7440	-651.08
0.2489,0.7511	-645.44
0.2415,0.7585	-652.03
0.2596,0.7404	-655.34
0.2939,0.7061	-655.68
0.2717,0.7283	-654.39
0.2993,0.7007	-651.55
0.2341,0.7659	-646.11
0.2355,0.7645	-659.10
0.2588,0.7412	-656.39
0.2787,0.7213	-653.54
0.2304,0.7696	-649.64
0.3025,0.6975	-654.21
0.2541,0.7459	-656.43
0.2550,0.7450	-652.13
0.2477,0.7523	-663.17
0.2172,0.7828	-650.93
0.2642,0.7358	-655.34
0.2790,0.7210	-658.30
0.2843,0.7157	-661.06
0.2483,0.7517	-656.50
0.2281,0.7719	-652.07
0.2082,0.7918	-651.08
0.2798,0.7202	-660.18
0.2400,0.7600	-649.73
0.2385,0.7615	-650.87
0.2294,0.7706	-647.22
0.2627,0.7373	-655.34
0.2084,0.7916	-643.07
0.2847,0.7153	-654.60
0.2395,0.7605	-650.87
0.2353,0.7647	-652.03
0.2670,0.7330	-656.36
0.2424,0.7576	-647.48
0.2079,0.7921	-648.41
0.2519,0.7481	-660.80
0.2744,0.7256	-651.51
0.2258,0.7742	-647.17
0.2717,0.7283	-654.39
0.2454,0.7546	-650.92
0.2338,0.7662	-642.54
0.1982,0.8018	-654.14
0.2792,0.7208	-646.91
0.2073,0.7927	-647.08
0.3005,0.6995	-657.52
0.2234,0.7766	-650.88
0.2378,0.7622	-649.70
0.2210,0.7790	-650.89
0.2389,0.7611	-646.24
0.2171,0.7829	-647.09
0.2996,0.7004	-658.36
0.2713,0.7287	-650.43
0.2567,0.7433	-655.34
0.2373,0.7627	-652.03
0.2243,0.7757	-649.63
0.2260,0.7740	-645.94
0.2803,0.7197	-657.35
0.2762,0.7238	-659.27
0.2685,0.7315	-656.36
0.2192,0.7808	-654.72
0.2052,0.7948	-651.15
0.2208,0.7792	-648.37
0.2610,0.7390	-657.42
0.3348,0.6652	-657.61
0.2424,0.7576	-656.59
0.2476,0.7524	-650.95
0.2133,0.7867	-653.60
0.2031,0.7969	-655.31
0.2747,0.7253	-651.52
0.2784,0.7216	-656.39
0.2324,0.7676	-658.02
0.2344,0.7656	-650.85
0.2619,0.7381	-651.19
0.2321,0.7679	-652.05
0.2859,0.7141	-651.88
0.2457,0.7543	-655.41
0.2616,0.7384	-655.34
0.2320,0.7680	-648.46
0.2532,0.7468	-651.03
0.2514,0.7486	-644.45
0.3152,0.6848	-658.56
0.2596,0.7404	-645.91
0.3202,0.6798	-654.13
0.2568,0.7432	-654.28
0.2212,0.7788	-657.19
0.2531,0.7469	-652.11
0.3205,0.6795	-660.91
0.2810,0.7190	-660.17
0.3825,0.6175	-662.61
0.2413,0.7587	-649.74
0.1960,0.8040	-648.59
0.2384,0.7616	-654.35
0.2939,0.7061	-661.82
0.2525,0.7475	-652.10
0.3670,0.6330	-661.13
0.2336,0.7664	-652.04
0.2103,0.7897	-643.10
0.2662,0.7338	-653.32
0.2653,0.7347	-656.36
0.2395,0.7605	-652.03
0.3251,0.6749	-663.13
0.2780,0.7220	-649.71
0.1854,0.8146	-653.33
0.2459,0.7541	-652.05
0.2592,0.7408	-656.39
0.1950,0.8050	-648.62
0.2817,0.7183	-652.67
0.2686,0.7314	-659.36
0.2185,0.7815	-657.29
0.2603,0.7397	-656.38
0.2356,0.7644	-653.21
0.1735,0.8265	-655.62
0.2922,0.7078	-657.42
0.2380,0.7620	-652.03
0.2530,0.7470	-646.69
0.2933,0.7067	-656.55
0.2419,0.7581	-653.18
0.2052,0.7948	-652.50
0.2776,0.7224	-657.34
0.2465,0.7535	-652.05
0.2482,0.7518	-657.61
0.2607,0.7393	-647.00
0.2318,0.7682	-659.24
0.2149,0.7851	-645.78
0.2829,0.7171	-657.36
0.2384,0.7616	-647.38
0.2291,0.7709	-652.07
0.2383,0.7617	-649.71
0.2714,0.7286	-656.36
0.2230,0.7770	-654.62
0.2352,0.7648	-644.96
0.2485,0.7515	-653.17
0.2122,0.7878	-651.01
0.1961,0.8039	-642.95
0.2698,0.7302	-654.37
0.2326,0.7674	-650.85
0.2865,0.7135	-662.85
0.2247,0.7753	-652.11
0.1926,0.8074	-641.51
0.1985,0.8015	-648.54
0.2576,0.7424	-654.28
0.2339,0.7661	-648.48
0.2896,0.7104	-653.81
0.2958,0.7042	-657.46
0.1908,0.8092	-638.61
0.2250,0.7750	-653.34
0.2755,0.7245	-656.38
0.2248,0.7752	-650.87
0.2745,0.7255	-647.62
0.2850,0.7150	-661.05
0.1585,0.8415	-638.61
0.2613,0.7387	-648.06
0.2554,0.7446	-655.35
0.2374,0.7626	-654.36
0.2666,0.7334	-662.43
0.2760,0.7240	-655.41
0.1749,0.8251	-643.11
0.2564,0.7436	-656.41
0.2624,0.7376	-652.24
0.2190,0.7810	-647.10
0.2404,0.7596	-653.18
0.3056,0.6944	-657.60
0.2178,0.7822	-650.93
0.2394,0.7606	-654.34
0.2242,0.7758	-649.63
0.2399,0.7601	-650.88
0.1748,0.8252	-646.21
0.3209,0.6791	-662.41
0.1843,0.8157	-644.46
0.2888,0.7112	-656.49
0.2722,0.7278	-657.35
0.2553,0.7447	-653.21
0.1817,0.8183	-647.51
0.3567,0.6433	-660.25
0.1673,0.8327	-646.50
0.2852,0.7148	-655.53
0.2525,0.7475	-651.02
0.3009,0.6991	-655.84
0.1660,0.8340	-644.95
0.4058,0.5942	-664.51
0.1447,0.8553	-653.25
0.2844,0.7156	-650.90
0.1957,0.8043	-651.43
0.2991,0.7009	-654.95
0.1928,0.8072	-642.94
0.4026,0.5974	-664.04
0.1600,0.8400	-651.84
0.2783,0.7217	-651.63
0.2042,0.7958	-653.89
0.2609,0.7391	-662.63
0.1849,0.8151	-647.42
0.3141,0.6859	-659.32
0.1901,0.8099	-648.74
0.2438,0.7562	-648.65
0.2159,0.7841	-653.53
0.1996,0.8004	-645.75
0.2199,0.7801	-652.17
0.2575,0.7425	-651.10
0.1628,0.8372	-640.17
0.2647,0.7353	-650.23
0.1889,0.8111	-644.40
0.2221,0.7779	-648.38
0.2590,0.7410	-649.03
0.2495,0.7505	-657.58
0.1878,0.8122	-647.34
0.2680,0.7320	-651.34
0.2183,0.7817	-645.82
0.2099,0.7901	-648.40
0.2946,0.7054	-653.08
0.2331,0.7669	-652.04
0.1722,0.8278	-643.16
0.2532,0.7468	-664.01
0.2355,0.7645	-652.03
0.2234,0.7766	-648.38
0.2604,0.7396	-655.34
0.2490,0.7510	-652.07
0.2158,0.7842	-650.95
0.2530,0.7470	-653.19
0.2406,0.7594	-647.43
0.2587,0.7413	-652.18
0.2760,0.7240	-651.56
0.2584,0.7416	-651.12
0.1910,0.8090	-637.17
0.2184,0.7816	-652.20
0.2021,0.7979	-653.98
0.2800,0.7200	-655.46
0.2944,0.7056	-655.70
0.2199,0.7801	-659.77
0.2297,0.7703	-648.43
0.2282,0.7718	-647.20
0.1906,0.8094	-642.94
0.2856,0.7144	-657.37
0.2920,0.7080	-650.34
0.2301,0.7699	-652.06
0.2369,0.7631	-649.69
0.1914,0.8086	-642.94
0.2077,0.7923	-641.72
0.2686,0.7314	-653.35
0.3078,0.6922	-657.64
0.2281,0.7719	-653.29
0.2651,0.7349	-652.28
0.2014,0.7986	-642.98
0.2120,0.7880	-640.51
0.2843,0.7157	-651.82
0.3053,0.6947	-657.59
0.2220,0.7780	-657.16
0.2648,0.7352	-645.13
0.2086,0.7914	-649.74
0.2106,0.7894	-652.36
0.2972,0.7028	-660.92
0.3050,0.6950	-657.59
0.1988,0.8012	-644.36
0.2848,0.7152	-662.89
0.1950,0.8050	-647.20
0.2594,0.7406	-646.94
0.3245,0.6755	-658.74
0.2791,0.7209	-657.35
0.2408,0.7592	-653.18
0.2323,0.7677	-650.85
0.1905,0.8095	-651.62
0.2746,0.7254	-652.49
0.3127,0.6873	-656.16
0.2697,0.7303	-653.37
0.2298,0.7702	-649.64
0.2269,0.7731	-647.18
0.1858,0.8142	-650.35
0.2591,0.7409	-655.34
0.3010,0.6990	-658.37
0.3182,0.6818	-658.61
0.2306,0.7694	-652.05
0.2090,0.7910	-652.40
0.2096,0.7904	-655.04
0.2677,0.7323	-655.35
0.2599,0.7401	-653.24
0.3210,0.6790	-652.67
0.2054,0.7946	-652.50
0.2267,0.7733	-647.18
0.2198,0.7802	-648.37
0.2885,0.7115	-655.58
0.2240,0.7760	-650.87
0.2912,0.7088	-657.41
0.2184,0.7816	-648.37
0.2422,0.7578	-656.60
0.2301,0.7699	-652.06
0.2970,0.7030	-659.20
0.2255,0.7745	-649.63
0.2879,0.7121	-653.76
0.2140,0.7860	-647.08
0.2535,0.7465	-649.95
0.2417,0.7583	-657.75
0.2958,0.7042	-654.86
0.2375,0.7625	-650.86
0.3361,0.6639	-661.74
0.2265,0.7735	-645.95
0.2338,0.7662	-648.48
0.1985,0.8015	-649.94
0.3005,0.6995	-655.83
0.2217,0.7783	-649.63
0.3343,0.6657	-664.48
0.1762,0.8238	-643.08
0.2225,0.7775	-642.13
0.1879,0.8121	-657.59
0.3144,0.6856	-656.21
0.2293,0.7707	-653.28
0.3317,0.6683	-661.71
0.2037,0.7963	-648.46
0.2241,0.7759	-653.35
0.1980,0.8020	-648.55
0.3071,0.6929	-656.00
0.1990,0.8010	-637.39
0.3449,0.6551	-660.55
0.1890,0.8110	-641.49
0.2085,0.7915	-648.41
0.1806,0.8194	-643.01
0.3066,0.6934	-653.53
0.1558,0.8442	-643.74
0.2752,0.7248	-651.53
0.2217,0.7783	-657.17
0.2103,0.7897	-649.72
0.1518,0.8482	-640.50
0.2916,0.7084	-663.63
0.1603,0.8397	-651.82
0.3161,0.6839	-659.35
0.2252,0.7748	-644.69
0.1820,0.8180	-641.49
0.2148,0.7852	-657.45
0.3011,0.6989	-654.16
0.1621,0.8379	-650.04
0.3358,0.6642	-659.69
0.2047,0.7953	-649.80
0.1617,0.8383	-641.84
0.2134,0.7866	-653.60
0.3427,0.6573	-657.90
0.1815,0.8185	-653.54
0.3698,0.6302	-659.09
0.2071,0.7929	-649.76
0.1616,0.8384	-646.78
0.2013,0.7987	-649.87
0.3875,0.6125	-666.88
0.1548,0.8452	-648.88
0.3534,0.6466	-664.38
0.2189,0.7811	-645.83
0.1651,0.8349	-643.36
0.2179,0.7821	-653.48
0.4037,0.5963	-664.46
0.1740,0.8260	-646.24
0.3540,0.6460	-663.17
0.2032,0.7968	-643.00
0.1600,0.8400	-641.89
0.2207,0.7793	-645.85
0.3610,0.6390	-659.24
0.1725,0.8275	-647.86
0.3681,0.6319	-660.63
0.2205,0.7795	-652.16
0.1590,0.8410	-645.26
0.2173,0.7827	-661.19
0.3193,0.6807	-656.36
0.1716,0.8284	-646.33
0.2967,0.7033	-651.43
0.1907,0.8093	-638.60
0.1674,0.8326	-656.13
0.2074,0.7926	-644.40
0.2951,0.7049	-656.58
0.1710,0.8290	-643.19
0.2795,0.7205	-655.45
0.2250,0.7750	-644.68
0.1572,0.8428	-647.03
0.2139,0.7861	-644.47
0.2833,0.7167	-652.72
0.1838,0.8162	-642.98
0.3166,0.6834	-657.81
0.2479,0.7521	-647.62
0.1920,0.8080	-638.63
0.1953,0.8047	-648.61
0.2731,0.7269	-661.26
0.1993,0.8007	-647.14
0.2499,0.7501	-647.68
0.2549,0.7451	-648.91
0.1767,0.8233	-639.99
0.2075,0.7925	-652.44
0.2033,0.7967	-649.83
0.2654,0.7346	-649.24
0.2467,0.7533	-654.29
0.2580,0.7420	-656.39
0.1664,0.8336	-638.49
0.1906,0.8094	-650.17
0.2114,0.7886	-651.02
0.2721,0.7279	-650.46
0.2460,0.7540	-649.81
0.2570,0.7430	-650.03
0.1643,0.8357	-638.51
0.2071,0.7929	-648.42
0.1950,0.8050	-634.44
0.2782,0.7218	-654.48
0.2476,0.7524	-648.73
0.2165,0.7835	-653.52
0.1821,0.8179	-649.00
0.2179,0.7821	-647.09
0.1957,0.8043	-651.43
0.3133,0.6867	-653.03
0.2720,0.7280	-649.47
0.2005,0.7995	-649.89
0.1860,0.8140	-650.34
0.2222,0.7778	-648.38
0.1868,0.8132	-654.72
0.3648,0.6352	-660.51
0.2856,0.7144	-660.12
0.1746,0.8254	-647.77
0.1879,0.8121	-653.19
0.2221,0.7779	-649.63
0.1935,0.8065	-655.79
0.3712,0.6288	-660.74
0.2843,0.7157	-659.21
0.1603,0.8397	-650.16
0.2059,0.7941	-647.08
0.2057,0.7943	-637.63
0.2104,0.7896	-653.69
0.3213,0.6787	-655.68
0.3027,0.6973	-653.38
0.1660,0.8340	-643.33
0.2314,0.7686	-655.65
0.2006,0.7994	-645.74
0.1761,0.8239	-647.71
0.2721,0.7279	-657.35
0.3179,0.6821	-654.79
0.1949,0.8051	-644.36
0.1817,0.8183	-653.53
0.2020,0.7980	-647.11
0.2064,0.7936	-645.74
0.2452,0.7548	-652.05
0.3256,0.6744	-658.03
0.1799,0.8201	-649.09
0.1999,0.8001	-644.36
0.1992,0.8008	-642.97
0.2388,0.7612	-654.35
0.2783,0.7217	-656.39
0.3693,0.6307	-659.60
0.1904,0.8096	-648.73
0.2014,0.7986	-647.12
0.2782,0.7218	-649.72
0.2355,0.7645	-655.57
0.2643,0.7357	-652.27
0.3500,0.6500	-660.67
0.2046,0.7954	-648.45
0.1872,0.8128	-648.83
0.2346,0.7654	-650.85
0.1919,0.8081	-648.69
0.2256,0.7744	-657.03
0.3144,0.6856	-660.89
0.2037,0.7963	-652.55
0.1891,0.8109	-651.68
0.2319,0.7681	-647.26
0.1947,0.8053	-644.36
0.2104,0.7896	-651.04
0.2992,0.7008	-652.40
0.2381,0.7619	-649.70
0.2020,0.7980	-658.10
0.2580,0.7420	-651.11
0.2257,0.7743	-650.86
0.1977,0.8023	-649.96
0.2504,0.7496	-648.79
0.2716,0.7284	-653.40
0.1814,0.8186	-646.01
0.2457,0.7543	-653.17
0.2249,0.7751	-645.92
0.1935,0.8065	-650.08
0.2658,0.7342	-650.27
0.2686,0.7314	-654.36
0.1817,0.8183	-639.99
0.2563,0.7437	-657.47
0.2168,0.7832	-650.94
0.1991,0.8009	-648.53
0.2702,0.7298	-654.37
0.2514,0.7486	-658.64
0.1717,0.8283	-652.62
0.2521,0.7479	-649.92
0.2331,0.7669	-647.28
0.2045,0.7955	-648.45
0.2579,0.7421	-658.51
0.2839,0.7161	-655.51
0.1812,0.8188	-647.53
0.2910,0.7090	-648.50
0.2461,0.7539	-653.17
0.2382,0.7618	-654.36
0.2451,0.7549	-653.17
0.2771,0.7229	-654.47
0.2089,0.7911	-649.74
0.2753,0.7247	-651.54
0.2203,0.7797	-648.37
0.2387,0.7613	-652.03
0.2409,0.7591	-654.33
0.2703,0.7297	-655.37
0.2252,0.7748	-653.34
0.3168,0.6832	-657.82
0.2337,0.7663	-642.54
0.2602,0.7398	-654.29
0.2170,0.7830	-652.22
0.2618,0.7382	-653.26
0.2236,0.7764	-647.14
0.3306,0.6694	-656.76
0.2474,0.7526	-650.95
0.2978,0.7022	-654.91
0.1887,0.8113	-648.78
0.2774,0.7226	-651.60
0.2288,0.7712	-649.64
0.3654,0.6346	-663.84
0.2430,0.7570	-646.35
0.2199,0.7801	-654.70
0.2194,0.7806	-652.18
0.2631,0.7369	-654.31
0.2581,0.7419	-654.28
0.3297,0.6703	-658.86
0.2783,0.7217	-654.49
0.1903,0.8097	-645.84
0.1865,0.8135	-642.96
0.2953,0.7047	-658.32
0.2482,0.7518	-642.09
0.3346,0.6654	-658.98
0.2763,0.7237	-656.38
0.1995,0.8005	-655.47
0.1700,0.8300	-640.05
0.2968,0.7032	-656.61
0.2656,0.7344	-647.21
0.2677,0.7323	-646.29
0.2088,0.7912	-648.41
0.2035,0.7965	-647.10
0.1399,0.8601	-642.90
0.2543,0.7457	-649.97
0.2150,0.7850	-649.67
0.3063,0.6937	-655.98
0.1852,0.8148	-640.00
0.2353,0.7647	-648.50
0.1786,0.8214	-650.67
0.2404,0.7596	-646.28
0.2450,0.7550	-647.54
0.3186,0.6814	-657.10
0.1802,0.8198	-647.56
0.2481,0.7519	-653.17
0.1701,0.8299	-643.22
0.2598,0.7402	-653.24
0.2256,0.7744	-653.33
0.3249,0.6751	-659.48
0.2017,0.7983	-652.62
0.2585,0.7415	-654.28
0.1591,0.8409	-640.26
0.2687,0.7313	-659.36
0.2161,0.7839	-648.37
0.2919,0.7081	-652.99
0.2409,0.7591	-649.74
0.2737,0.7263	-656.37
0.1619,0.8381	-645.12
0.2907,0.7093	-658.30
0.2198,0.7802	-648.37
0.2663,0.7337	-654.33
0.2559,0.7441	-657.48
0.3034,0.6966	-658.39
0.1784,0.8216	-649.15
0.2861,0.7139	-647.32
0.2423,0.7577	-656.60
0.2860,0.7140	-658.29
0.2513,0.7487	-656.46
0.2829,0.7171	-659.22
0.1725,0.8275	-647.86
0.3315,0.6685	-664.51
0.2079,0.7921	-644.40
0.3068,0.6932	-660.88
0.2478,0.7522	-656.50
0.2697,0.7303	-650.38
0.1572,0.8428	-650.39
0.3295,0.6705	-658.14
0.2402,0.7598	-650.88
0.2593,0.7407	-649.04
0.2559,0.7441	-654.28
0.2788,0.7212	-655.45
0.1513,0.8487	-647.42
0.3461,0.6539	-661.85
0.2219,0.7781	-650.89
0.2361,0.7639	-647.33
0.2761,0.7239	-651.56
0.2294,0.7706	-653.27
0.1538,0.8462	-640.42
0.3838,0.6162	-663.12
0.1884,0.8116	-642.95
0.2292,0.7708	-650.85
0.2863,0.7137	-658.29
0.2266,0.7734	-654.54
0.1465,0.8535	-644.25
0.3862,0.6138	-660.40
0.1853,0.8147	-653.33
0.2501,0.7499	-647.69
0.2891,0.7109	-660.09
0.2539,0.7461	-654.27
0.1279,0.8721	-647.71
0.4314,0.5686	-664.13
0.1690,0.8310	-648.02
0.2195,0.7805	-649.64
0.3232,0.6768	-663.88
0.2812,0.7188	-652.66
0.1236,0.8764	-642.35
0.3866,0.6134	-665.96
0.1586,0.8414	-640.27
0.2397,0.7603	-658.96
0.3562,0.6438	-660.83
0.2652,0.7348	-652.29
0.1521,0.8479	-637.05
0.3896,0.6104	-663.27
0.1382,0.8618	-635.69
0.2043,0.7957	-653.89
0.3117,0.6883	-653.75
0.2284,0.7716	-647.20
0.1797,0.8203	-646.06
0.4193,0.5807	-663.24
0.1731,0.8269	-643.14
0.1823,0.8177	-641.49
0.2976,0.7024	-658.34
0.2246,0.7754	-659.54
0.1760,0.8240	-649.26
0.4463,0.5537	-667.27
0.1857,0.8143	-659.22
0.1811,0.8189	-641.50
0.3125,0.6875	-664.82
0.2105,0.7895	-644.43
0.1692,0.8308	-644.83
0.3759,0.6241	-660.41
0.2213,0.7787	-647.12
0.1674,0.8326	-643.29
0.3616,0.6384	-663.25
0.2229,0.7771	-643.39
0.2216,0.7784	-644.61
0.3396,0.6604	-657.12
0.2210,0.7790	-652.15
0.1454,0.8546	-639.01
0.3090,0.6910	-658.46
0.2006,0.7994	-648.51
0.1820,0.8180	-646.00
0.3352,0.6648	-662.42
0.2473,0.7527	-649.83
0.1734,0.8266	-654.07
0.2967,0.7033	-655.74
0.1890,0.8110	-651.68
0.2105,0.7895	-653.68
0.3471,0.6529	-657.44
0.2609,0.7391	-656.38
0.1776,0.8224	-647.66
0.2451,0.7549	-654.30
0.2362,0.7638	-649.68
0.1968,0.8032	-652.80
0.2816,0.7184	-653.61
0.2655,0.7345	-651.27
0.1757,0.8243	-646.18
0.2085,0.7915	-652.41
0.2382,0.7618	-656.68
0.2374,0.7626	-657.87
0.2434,0.7566	-659.98
0.2457,0.7543	-648.68
0.1812,0.8188	-650.54
0.2057,0.7943	-651.14
0.2140,0.7860	-645.77
0.2435,0.7565	-655.44
0.2158,0.7842	-653.53
0.1923,0.8077	-650.12
0.2204,0.7796	-645.85
0.2132,0.7868	-648.38
0.2583,0.7417	-652.17
0.2285,0.7715	-650.85
0.1739,0.8261	-650.91
0.2080,0.7920	-649.75
0.2519,0.7481	-653.19
0.2148,0.7852	-644.48
0.2585,0.7415	-654.28
0.2249,0.7751	-647.15
0.2152,0.7848	-648.37
0.2221,0.7779	-647.13
0.2414,0.7586	-648.60
0.2348,0.7652	-653.22
0.2626,0.7374	-654.31
0.2147,0.7853	-649.67
0.2203,0.7797	-653.43
0.2034,0.7966	-647.10
0.2720,0.7280	-655.38
0.2171,0.7829	-645.81
0.3116,0.6884	-652.95
0.2144,0.7856	-657.47
0.2508,0.7492	-647.71
0.2040,0.7960	-641.65
0.2346,0.7654	-660.31
0.2049,0.7951	-663.36
0.2964,0.7036	-654.01
0.1982,0.8018	-647.15
0.2942,0.7058	-658.32
0.2196,0.7804	-647.10
0.2710,0.7290	-655.37
0.2081,0.7919	-651.09
0.3184,0.6816	-653.29
0.2131,0.7869	-653.61
0.2802,0.7198	-651.69
0.2168,0.7832	-647.09
0.2802,0.7198	-649.80
0.1922,0.8078	-648.68
0.3288,0.6712	-659.55
0.2353,0.7647	-657.93
0.2858,0.7142	-648.21
0.2463,0.7537	-655.41
0.2653,0.7347	-654.33
0.2136,0.7864	-654.90
0.2618,0.7382	-653.26
0.2519,0.7481	-648.83
0.2607,0.7393	-660.55
0.2398,0.7602	-658.95
0.2806,0.7194	-660.17
0.2163,0.7837	-644.51
0.3132,0.6868	-660.10
0.2199,0.7801	-653.44
0.2165,0.7835	-647.08
0.2501,0.7499	-653.18
0.2408,0.7592	-647.44
0.2406,0.7594	-652.03
0.2896,0.7104	-661.89
0.2373,0.7627	-648.53
0.2109,0.7891	-648.39
0.2364,0.7636	-648.51
0.2204,0.7796	-642.06
0.2303,0.7697	-647.23
0.2828,0.7172	-657.36
0.2854,0.7146	-650.03
0.1814,0.8186	-652.05
0.2432,0.7568	-649.77
0.2287,0.7713	-647.21
0.2392,0.7608	-663.60
0.2862,0.7138	-654.63
0.2471,0.7529	-653.17
0.1991,0.8009	-652.71
0.2151,0.7849	-650.96
0.1827,0.8173	-641.49
0.2187,0.7813	-653.46
0.2708,0.7292	-654.38
0.2203,0.7797	-650.90
0.2065,0.7935	-647.08
0.2203,0.7797	-653.43
0.2049,0.7951	-649.80
0.2419,0.7581	-649.75
0.2594,0.7406	-652.19
0.2013,0.7987	-647.12
0.2041,0.7959	-647.10
0.1840,0.8160	-644.47
0.2203,0.7797	-643.32
0.2512,0.7488	-655.37
0.2428,0.7572	-658.86
0.2071,0.7929	-647.08
0.1872,0.8128	-645.89
0.1939,0.8061	-644.37
0.2126,0.7874	-649.69
0.2760,0.7240	-654.45
0.2585,0.7415	-653.23
0.2193,0.7807	-657.26
0.2012,0.7988	-652.63
0.1872,0.8128	-657.64
