#isoforms=['ENSG00000186575.SE.4.A.up_ENSG00000186575.SE.4.A.SE1_ENSG00000186575.SE.4.A.dn','ENSG00000186575.SE.4.B.up_ENSG00000186575.SE.4.B.dn']	exon_lens=('ENSG00000186575.SE.4.A.up',128),('ENSG00000186575.SE.4.A.SE1',163),('ENSG00000186575.SE.4.A.dn',3847),('ENSG00000186575.SE.4.B.up',128),('ENSG00000186575.SE.4.B.dn',194)	iters=5000	burn_in=500	lag=10	percent_accept=95.29	proposal_type=drift	counts=(0,0):674,(0,1):1,(1,0):3451,(1,1):123	assigned_counts=0:3573,1:2	chrom=chr22	strand=+	mRNA_starts=29678196,29678196	mRNA_ends=29698598,29694945
sampled_psi	log_score
0.9907,0.0093	-29705.55
0.9129,0.0871	-29746.03
0.9616,0.0384	-29718.63
0.9805,0.0195	-29700.69
0.9385,0.0615	-29727.86
0.9577,0.0423	-29709.30
0.9909,0.0091	-29691.52
0.9090,0.0910	-29739.17
0.9565,0.0435	-29706.31
0.9797,0.0203	-29712.36
0.9474,0.0526	-29721.95
0.9602,0.0398	-29705.90
0.9889,0.0111	-29700.70
0.9145,0.0855	-29729.42
0.9407,0.0593	-29730.57
0.9788,0.0212	-29700.78
0.9481,0.0519	-29727.73
0.9598,0.0402	-29718.63
0.9898,0.0102	-29714.52
0.9447,0.0553	-29716.38
0.9478,0.0522	-29727.73
0.9813,0.0187	-29692.74
0.9589,0.0411	-29709.19
0.9554,0.0446	-29715.65
0.9919,0.0081	-29696.25
0.9544,0.0456	-29721.78
0.9381,0.0619	-29727.88
0.9769,0.0231	-29700.91
0.9636,0.0364	-29702.28
0.9548,0.0452	-29718.72
0.9904,0.0096	-29696.21
0.9598,0.0402	-29702.78
0.9457,0.0543	-29736.30
0.9826,0.0174	-29696.58
0.9647,0.0353	-29705.44
0.9651,0.0349	-29712.05
0.9891,0.0109	-29700.72
0.9585,0.0415	-29718.65
0.9597,0.0403	-29705.96
0.9849,0.0151	-29696.40
0.9591,0.0409	-29709.17
0.9607,0.0393	-29718.63
0.9877,0.0123	-29700.63
0.9607,0.0393	-29715.44
0.9598,0.0402	-29705.95
0.9831,0.0169	-29708.73
0.9577,0.0423	-29712.42
0.9646,0.0354	-29705.45
0.9843,0.0157	-29700.58
0.9621,0.0379	-29705.70
0.9599,0.0401	-29712.28
0.9817,0.0183	-29708.60
0.9494,0.0506	-29724.81
0.9633,0.0367	-29721.92
0.9821,0.0179	-29708.64
0.9521,0.0479	-29709.85
0.9569,0.0431	-29709.37
0.9840,0.0160	-29700.58
0.9430,0.0570	-29713.72
0.9700,0.0300	-29708.48
0.9798,0.0202	-29704.61
0.9608,0.0392	-29728.23
0.9542,0.0458	-29712.67
0.9831,0.0169	-29696.53
0.9443,0.0557	-29716.42
0.9647,0.0353	-29698.82
0.9793,0.0207	-29704.61
0.9554,0.0446	-29712.58
0.9597,0.0403	-29705.95
0.9830,0.0170	-29696.55
0.9347,0.0653	-29717.37
0.9606,0.0394	-29718.63
0.9804,0.0196	-29712.43
0.9601,0.0399	-29715.45
0.9644,0.0356	-29702.17
0.9827,0.0173	-29696.57
0.9406,0.0594	-29716.75
0.9567,0.0433	-29718.68
0.9750,0.0250	-29701.05
0.9585,0.0415	-29715.51
0.9555,0.0445	-29712.57
0.9815,0.0185	-29700.65
0.9343,0.0657	-29717.40
0.9569,0.0431	-29706.27
0.9790,0.0210	-29712.30
0.9518,0.0482	-29718.83
0.9490,0.0510	-29716.04
0.9798,0.0202	-29692.96
0.9407,0.0593	-29711.22
0.9609,0.0391	-29718.63
0.9776,0.0224	-29708.41
0.9482,0.0518	-29719.01
0.9463,0.0537	-29707.64
0.9765,0.0235	-29700.94
0.9399,0.0601	-29716.83
0.9605,0.0395	-29709.06
0.9814,0.0186	-29704.62
0.9546,0.0454	-29727.87
0.9479,0.0521	-29704.52
0.9781,0.0219	-29697.03
0.9359,0.0641	-29725.28
0.9535,0.0465	-29709.70
0.9819,0.0181	-29708.62
0.9493,0.0507	-29716.02
0.9625,0.0375	-29708.91
0.9719,0.0281	-29711.97
0.9265,0.0735	-29733.53
0.9471,0.0529	-29719.07
0.9809,0.0191	-29708.55
0.9519,0.0481	-29706.89
0.9612,0.0388	-29715.42
0.9689,0.0311	-29705.09
0.9261,0.0739	-29725.96
0.9563,0.0437	-29712.51
0.9825,0.0175	-29704.64
0.9530,0.0470	-29715.78
0.9606,0.0394	-29725.02
0.9587,0.0413	-29709.21
0.9441,0.0559	-29722.09
0.9548,0.0452	-29700.42
0.9859,0.0141	-29700.58
0.9563,0.0437	-29712.51
0.9660,0.0340	-29718.72
0.9696,0.0304	-29711.96
0.9525,0.0475	-29712.81
0.9375,0.0625	-29708.95
0.9881,0.0119	-29700.66
0.9520,0.0480	-29709.86
0.9719,0.0281	-29701.34
0.9698,0.0302	-29708.49
0.9536,0.0464	-29706.67
0.9327,0.0673	-29720.22
0.9860,0.0140	-29700.58
0.9515,0.0485	-29706.94
0.9780,0.0220	-29693.24
0.9755,0.0245	-29697.33
0.9559,0.0441	-29709.47
0.9288,0.0712	-29723.18
0.9868,0.0132	-29691.98
0.9531,0.0469	-29709.75
0.9777,0.0223	-29697.07
0.9737,0.0263	-29704.78
0.9586,0.0414	-29721.79
0.9476,0.0524	-29724.83
0.9910,0.0090	-29696.22
0.9535,0.0465	-29724.81
0.9733,0.0267	-29708.40
0.9777,0.0223	-29697.08
0.9544,0.0456	-29724.82
0.9415,0.0585	-29727.78
0.9880,0.0120	-29700.65
0.9485,0.0515	-29727.73
0.9710,0.0290	-29711.96
0.9797,0.0203	-29696.86
0.9582,0.0418	-29728.05
0.9441,0.0559	-29719.26
0.9870,0.0130	-29704.93
0.9365,0.0635	-29719.86
0.9665,0.0335	-29708.65
0.9779,0.0221	-29700.84
0.9573,0.0427	-29728.00
0.9518,0.0482	-29712.87
0.9870,0.0130	-29696.28
0.9364,0.0636	-29727.94
0.9530,0.0470	-29718.79
0.9726,0.0274	-29704.84
0.9513,0.0487	-29718.85
0.9493,0.0507	-29721.88
0.9863,0.0137	-29704.87
0.9377,0.0623	-29719.76
0.9586,0.0414	-29715.50
0.9731,0.0269	-29704.81
0.9603,0.0397	-29709.07
0.9592,0.0408	-29712.32
0.9855,0.0145	-29692.13
0.9375,0.0625	-29722.48
0.9613,0.0387	-29712.21
0.9741,0.0259	-29708.39
0.9558,0.0442	-29706.41
0.9583,0.0417	-29709.25
0.9878,0.0122	-29700.64
0.9157,0.0843	-29722.15
0.9629,0.0371	-29708.88
0.9677,0.0323	-29701.78
0.9600,0.0400	-29715.46
0.9607,0.0393	-29712.24
0.9886,0.0114	-29696.22
0.9000,0.1000	-29733.16
0.9642,0.0358	-29705.49
0.9751,0.0249	-29697.37
0.9479,0.0521	-29716.12
0.9644,0.0356	-29702.18
0.9900,0.0100	-29696.20
0.8997,0.1003	-29741.97
0.9657,0.0343	-29698.68
0.9753,0.0247	-29693.67
0.9539,0.0461	-29706.63
0.9690,0.0310	-29708.52
0.9877,0.0123	-29696.25
0.9162,0.0838	-29731.66
0.9694,0.0306	-29705.05
0.9803,0.0197	-29700.70
0.9599,0.0401	-29718.63
0.9673,0.0327	-29701.83
0.9853,0.0147	-29704.78
0.9293,0.0707	-29720.56
0.9652,0.0348	-29705.40
0.9835,0.0165	-29716.95
0.9612,0.0388	-29715.42
0.9593,0.0407	-29712.32
0.9857,0.0143	-29713.28
0.9271,0.0729	-29725.88
0.9603,0.0397	-29705.89
0.9839,0.0161	-29700.58
0.9640,0.0360	-29718.66
0.9599,0.0401	-29731.34
0.9873,0.0127	-29709.33
0.9108,0.0892	-29734.43
0.9706,0.0294	-29701.47
0.9861,0.0139	-29696.33
0.9670,0.0330	-29701.86
0.9522,0.0478	-29709.84
0.9892,0.0108	-29700.73
0.9234,0.0766	-29738.64
0.9761,0.0239	-29715.80
0.9873,0.0127	-29700.62
0.9638,0.0362	-29702.25
0.9426,0.0574	-29713.77
0.9901,0.0099	-29691.60
0.9197,0.0803	-29721.65
0.9766,0.0234	-29712.13
0.9861,0.0139	-29700.58
0.9626,0.0374	-29708.90
0.9395,0.0605	-29725.09
0.9901,0.0099	-29696.20
0.9258,0.0742	-29718.42
0.9742,0.0258	-29708.39
0.9863,0.0137	-29692.04
0.9666,0.0334	-29705.27
0.9438,0.0562	-29713.64
0.9929,0.0071	-29691.38
0.9277,0.0723	-29713.08
0.9661,0.0339	-29708.67
0.9883,0.0117	-29700.66
0.9633,0.0367	-29702.32
0.9465,0.0535	-29716.23
0.9948,0.0052	-29701.83
0.9149,0.0851	-29734.14
0.9699,0.0301	-29718.90
0.9867,0.0133	-29700.60
0.9567,0.0433	-29712.49
0.9439,0.0561	-29716.45
0.9948,0.0052	-29701.80
0.9108,0.0892	-29725.13
0.9646,0.0354	-29721.98
0.9871,0.0129	-29691.94
0.9551,0.0449	-29721.77
0.9271,0.0729	-29728.42
0.9960,0.0040	-29691.34
0.9156,0.0844	-29719.80
0.9664,0.0336	-29712.01
0.9822,0.0178	-29708.64
0.9542,0.0458	-29703.56
0.9204,0.0796	-29728.91
0.9951,0.0049	-29696.63
0.9354,0.0646	-29730.65
0.9635,0.0365	-29712.11
0.9757,0.0243	-29697.31
0.9512,0.0488	-29718.86
0.9181,0.0819	-29726.69
0.9940,0.0060	-29691.33
0.9407,0.0593	-29711.22
0.9566,0.0434	-29709.40
0.9772,0.0228	-29697.13
0.9385,0.0615	-29722.42
0.9138,0.0862	-29724.77
0.9943,0.0057	-29696.48
0.9512,0.0488	-29724.80
0.9672,0.0328	-29715.38
0.9776,0.0224	-29715.96
0.9431,0.0569	-29719.33
0.9286,0.0714	-29733.46
0.9944,0.0056	-29696.50
0.9496,0.0504	-29721.87
0.9684,0.0316	-29701.71
0.9790,0.0210	-29704.61
0.9302,0.0698	-29723.06
0.9425,0.0575	-29716.58
0.9941,0.0059	-29691.32
0.9570,0.0430	-29718.67
0.9738,0.0262	-29701.16
0.9759,0.0241	-29715.79
0.9185,0.0815	-29724.22
0.9374,0.0626	-29711.66
0.9943,0.0057	-29691.32
0.9511,0.0489	-29724.80
0.9728,0.0272	-29708.41
0.9755,0.0245	-29708.38
0.9355,0.0645	-29727.97
0.9441,0.0559	-29724.91
0.9949,0.0051	-29701.84
0.9566,0.0434	-29703.21
0.9631,0.0369	-29715.39
0.9710,0.0290	-29704.94
0.9414,0.0586	-29722.23
0.9465,0.0535	-29727.73
0.9946,0.0054	-29696.54
0.9569,0.0431	-29709.37
0.9653,0.0347	-29712.04
0.9676,0.0324	-29705.19
0.9482,0.0518	-29710.29
0.9373,0.0627	-29725.20
0.9949,0.0051	-29696.58
0.9584,0.0416	-29699.82
0.9702,0.0298	-29725.89
0.9715,0.0285	-29704.91
0.9376,0.0624	-29725.19
0.9408,0.0592	-29713.97
0.9944,0.0056	-29696.50
0.9562,0.0438	-29703.27
0.9696,0.0304	-29694.66
0.9721,0.0279	-29697.77
0.9495,0.0505	-29716.01
0.9439,0.0561	-29716.45
0.9930,0.0070	-29701.27
0.9616,0.0384	-29708.97
0.9745,0.0255	-29719.31
0.9741,0.0259	-29701.13
0.9563,0.0437	-29724.86
0.9442,0.0558	-29727.74
0.9936,0.0064	-29691.34
0.9661,0.0339	-29715.37
0.9692,0.0308	-29711.96
0.9752,0.0248	-29701.04
0.9530,0.0470	-29709.75
0.9488,0.0512	-29716.05
0.9945,0.0055	-29691.31
0.9701,0.0299	-29694.56
0.9678,0.0322	-29725.59
0.9747,0.0253	-29708.38
0.9484,0.0516	-29716.09
0.9486,0.0514	-29721.90
0.9949,0.0051	-29696.57
0.9749,0.0251	-29708.38
0.9726,0.0274	-29694.13
0.9757,0.0243	-29704.69
0.9288,0.0712	-29728.32
0.9433,0.0567	-29713.70
0.9934,0.0066	-29701.37
0.9757,0.0243	-29701.00
0.9760,0.0240	-29700.97
0.9741,0.0259	-29693.87
0.9430,0.0570	-29724.95
0.9409,0.0591	-29725.03
0.9903,0.0097	-29696.21
0.9680,0.0320	-29715.39
0.9738,0.0262	-29715.62
0.9675,0.0325	-29711.99
0.9479,0.0521	-29733.53
0.9501,0.0499	-29727.75
0.9896,0.0104	-29696.21
0.9645,0.0355	-29698.86
0.9696,0.0304	-29701.57
0.9749,0.0251	-29708.38
0.9534,0.0466	-29709.72
0.9611,0.0389	-29715.42
0.9898,0.0102	-29696.20
0.9754,0.0246	-29715.74
0.9685,0.0315	-29701.69
0.9771,0.0229	-29704.65
0.9474,0.0526	-29707.50
0.9626,0.0374	-29715.39
0.9890,0.0110	-29696.21
0.9733,0.0267	-29704.80
0.9581,0.0419	-29709.26
0.9808,0.0192	-29704.61
0.9470,0.0530	-29716.20
0.9627,0.0373	-29708.89
0.9896,0.0104	-29696.21
0.9694,0.0306	-29718.87
0.9616,0.0384	-29718.63
0.9803,0.0197	-29704.61
0.9447,0.0553	-29716.38
0.9620,0.0380	-29715.41
0.9904,0.0096	-29696.21
0.9719,0.0281	-29701.34
0.9624,0.0376	-29708.91
0.9780,0.0220	-29693.24
0.9493,0.0507	-29727.74
0.9642,0.0358	-29708.79
0.9925,0.0075	-29691.40
0.9708,0.0292	-29701.45
0.9648,0.0352	-29708.75
0.9788,0.0212	-29693.12
0.9455,0.0545	-29713.47
0.9608,0.0392	-29709.03
0.9931,0.0069	-29691.36
0.9669,0.0331	-29712.00
0.9643,0.0357	-29718.67
0.9761,0.0239	-29700.97
0.9476,0.0524	-29724.83
0.9605,0.0395	-29712.25
0.9936,0.0064	-29696.39
0.9690,0.0310	-29708.53
0.9606,0.0394	-29712.24
0.9705,0.0295	-29697.98
0.9607,0.0393	-29712.24
0.9639,0.0361	-29708.80
0.9938,0.0062	-29696.41
0.9685,0.0315	-29701.70
0.9603,0.0397	-29712.26
0.9667,0.0333	-29705.27
0.9638,0.0362	-29705.53
0.9610,0.0390	-29718.63
0.9930,0.0070	-29701.27
0.9572,0.0428	-29712.45
0.9653,0.0347	-29715.37
0.9651,0.0349	-29715.37
0.9591,0.0409	-29709.17
0.9593,0.0407	-29699.67
0.9945,0.0055	-29701.70
0.9566,0.0434	-29715.59
0.9599,0.0401	-29702.76
0.9669,0.0331	-29708.62
0.9717,0.0283	-29711.97
0.9571,0.0429	-29715.56
0.9940,0.0060	-29691.33
0.9591,0.0409	-29712.33
0.9659,0.0341	-29698.65
0.9660,0.0340	-29705.33
0.9718,0.0282	-29704.89
0.9658,0.0342	-29715.37
0.9945,0.0055	-29696.50
0.9655,0.0345	-29725.36
0.9733,0.0267	-29719.19
0.9592,0.0408	-29718.64
0.9701,0.0299	-29715.44
0.9669,0.0331	-29718.75
0.9927,0.0073	-29691.39
0.9625,0.0375	-29712.15
0.9752,0.0248	-29693.69
0.9610,0.0390	-29715.43
0.9679,0.0321	-29705.17
0.9635,0.0365	-29705.56
0.9907,0.0093	-29696.21
0.9645,0.0355	-29698.86
0.9746,0.0254	-29697.44
0.9649,0.0351	-29715.37
0.9675,0.0325	-29705.20
0.9632,0.0368	-29712.12
0.9890,0.0110	-29691.72
0.9659,0.0341	-29701.99
0.9793,0.0207	-29696.89
0.9757,0.0243	-29697.30
0.9669,0.0331	-29715.37
0.9653,0.0347	-29705.39
0.9874,0.0126	-29696.26
0.9589,0.0411	-29706.04
0.9807,0.0193	-29700.68
0.9772,0.0228	-29700.88
0.9684,0.0316	-29708.55
0.9657,0.0343	-29712.03
0.9857,0.0143	-29700.58
0.9526,0.0474	-29730.80
0.9763,0.0237	-29704.67
0.9803,0.0197	-29708.51
0.9634,0.0366	-29699.03
0.9657,0.0343	-29705.35
0.9869,0.0131	-29696.28
0.9526,0.0474	-29709.80
0.9789,0.0211	-29708.45
0.9787,0.0213	-29693.13
0.9675,0.0325	-29705.20
0.9659,0.0341	-29701.99
0.9870,0.0130	-29700.61
0.9624,0.0376	-29712.15
0.9787,0.0213	-29696.96
0.9788,0.0212	-29700.78
0.9679,0.0321	-29722.20
0.9645,0.0355	-29715.37
0.9875,0.0125	-29691.88
0.9522,0.0478	-29715.82
0.9833,0.0167	-29700.59
0.9823,0.0177	-29712.67
0.9662,0.0338	-29698.60
0.9559,0.0441	-29715.62
0.9862,0.0138	-29692.04
0.9589,0.0411	-29718.64
0.9857,0.0143	-29696.35
0.9815,0.0185	-29700.65
0.9640,0.0360	-29712.09
0.9572,0.0428	-29715.56
0.9843,0.0157	-29696.44
0.9609,0.0391	-29709.03
0.9867,0.0133	-29704.90
0.9805,0.0195	-29696.77
0.9623,0.0377	-29725.12
0.9585,0.0415	-29718.65
0.9888,0.0112	-29691.74
0.9637,0.0363	-29702.27
0.9826,0.0174	-29704.64
0.9798,0.0202	-29700.73
0.9625,0.0375	-29715.40
0.9609,0.0391	-29709.03
0.9908,0.0092	-29691.53
0.9556,0.0444	-29706.43
0.9798,0.0202	-29704.61
0.9818,0.0182	-29708.61
0.9633,0.0367	-29715.38
0.9621,0.0379	-29712.17
0.9903,0.0097	-29696.21
0.9547,0.0453	-29709.58
0.9796,0.0204	-29700.73
0.9795,0.0205	-29727.81
0.9620,0.0380	-29705.71
0.9582,0.0418	-29712.39
0.9922,0.0078	-29696.27
0.9570,0.0430	-29706.26
0.9777,0.0223	-29715.97
0.9797,0.0203	-29700.73
0.9637,0.0363	-29708.82
0.9599,0.0401	-29718.63
0.9922,0.0078	-29696.27
0.9667,0.0333	-29708.64
0.9802,0.0198	-29692.90
0.9792,0.0208	-29716.16
0.9657,0.0343	-29705.36
0.9557,0.0443	-29715.63
0.9920,0.0080	-29691.43
0.9640,0.0360	-29725.24
0.9789,0.0211	-29696.94
0.9811,0.0189	-29696.71
0.9668,0.0332	-29701.89
0.9505,0.0495	-29712.98
0.9929,0.0071	-29696.32
0.9572,0.0428	-29709.35
0.9784,0.0216	-29708.43
0.9793,0.0207	-29700.75
0.9614,0.0386	-29705.77
0.9477,0.0523	-29716.14
0.9926,0.0074	-29696.29
0.9572,0.0428	-29718.67
0.9801,0.0199	-29708.50
0.9761,0.0239	-29704.68
0.9548,0.0452	-29712.63
0.9339,0.0661	-29720.10
0.9921,0.0079	-29691.43
0.9644,0.0356	-29715.37
0.9779,0.0221	-29697.05
0.9786,0.0214	-29696.97
0.9556,0.0444	-29718.70
0.9312,0.0688	-29728.18
0.9922,0.0078	-29705.95
0.9571,0.0429	-29715.56
0.9771,0.0229	-29712.15
0.9817,0.0183	-29700.64
0.9575,0.0425	-29706.20
0.9378,0.0622	-29722.46
0.9929,0.0071	-29691.38
0.9651,0.0349	-29712.05
0.9802,0.0198	-29696.81
0.9830,0.0170	-29712.78
0.9559,0.0441	-29724.85
0.9281,0.0719	-29720.68
0.9943,0.0057	-29696.48
0.9573,0.0427	-29709.33
0.9792,0.0208	-29693.05
0.9821,0.0179	-29708.64
0.9589,0.0411	-29715.49
0.9299,0.0701	-29712.75
0.9948,0.0052	-29696.56
0.9436,0.0564	-29719.30
0.9773,0.0227	-29715.93
0.9864,0.0136	-29696.30
0.9513,0.0487	-29706.97
0.9398,0.0602	-29725.08
0.9945,0.0055	-29691.31
0.9469,0.0531	-29719.08
0.9796,0.0204	-29696.86
0.9835,0.0165	-29704.68
0.9576,0.0424	-29718.66
0.9424,0.0576	-29730.56
0.9946,0.0054	-29691.31
0.9422,0.0578	-29708.24
0.9771,0.0229	-29700.89
0.9837,0.0163	-29704.68
0.9496,0.0504	-29710.13
0.9425,0.0575	-29702.60
0.9940,0.0060	-29691.32
0.9422,0.0578	-29713.82
0.9818,0.0182	-29704.62
0.9835,0.0165	-29708.77
0.9430,0.0570	-29710.92
0.9384,0.0616	-29725.14
0.9933,0.0067	-29706.33
0.9353,0.0647	-29711.95
0.9836,0.0164	-29696.49
0.9789,0.0211	-29693.11
0.9433,0.0567	-29719.32
0.9494,0.0506	-29721.88
0.9924,0.0076	-29696.28
0.9381,0.0619	-29711.57
0.9824,0.0176	-29700.61
0.9771,0.0229	-29704.65
0.9381,0.0619	-29733.31
0.9657,0.0343	-29712.03
0.9883,0.0117	-29700.66
0.9417,0.0583	-29722.22
0.9813,0.0187	-29700.65
0.9771,0.0229	-29700.89
0.9228,0.0772	-29728.73
0.9708,0.0292	-29708.46
0.9844,0.0156	-29692.29
0.9280,0.0720	-29730.92
0.9767,0.0233	-29712.13
0.9720,0.0280	-29701.33
0.9237,0.0763	-29726.17
0.9697,0.0303	-29701.56
0.9842,0.0158	-29696.45
0.9271,0.0729	-29713.17
0.9751,0.0249	-29708.38
0.9705,0.0295	-29708.47
0.9220,0.0780	-29738.67
0.9636,0.0364	-29715.38
0.9839,0.0161	-29704.69
0.9382,0.0618	-29722.43
0.9786,0.0214	-29708.44
0.9757,0.0243	-29712.08
0.9249,0.0751	-29728.57
0.9691,0.0309	-29708.52
0.9791,0.0209	-29700.76
0.9354,0.0646	-29719.96
0.9763,0.0237	-29708.39
0.9731,0.0269	-29704.81
0.9240,0.0760	-29721.14
0.9701,0.0299	-29715.44
0.9815,0.0185	-29704.62
0.9329,0.0671	-29728.09
0.9816,0.0184	-29700.64
0.9801,0.0199	-29704.61
0.9299,0.0701	-29725.67
0.9679,0.0321	-29705.16
0.9813,0.0187	-29700.66
0.9335,0.0665	-29717.49
0.9790,0.0210	-29708.45
0.9809,0.0191	-29696.74
0.9402,0.0598	-29722.30
0.9678,0.0322	-29711.98
0.9815,0.0185	-29696.67
0.9337,0.0663	-29722.76
0.9838,0.0162	-29696.48
0.9807,0.0193	-29704.61
0.9394,0.0606	-29730.58
0.9743,0.0257	-29701.11
0.9852,0.0148	-29696.38
0.9307,0.0693	-29733.40
0.9824,0.0176	-29692.57
0.9793,0.0207	-29704.61
0.9491,0.0509	-29716.04
0.9737,0.0263	-29708.39
0.9862,0.0138	-29700.59
0.9426,0.0574	-29719.36
0.9845,0.0155	-29692.27
0.9817,0.0183	-29704.62
0.9526,0.0474	-29700.79
0.9693,0.0307	-29715.42
0.9875,0.0125	-29691.89
0.9488,0.0512	-29724.82
0.9827,0.0173	-29696.57
0.9780,0.0220	-29700.83
0.9543,0.0457	-29715.70
0.9632,0.0368	-29725.18
0.9863,0.0137	-29696.31
0.9493,0.0507	-29713.09
0.9816,0.0184	-29696.66
0.9767,0.0233	-29708.39
0.9564,0.0436	-29715.60
0.9667,0.0333	-29708.64
0.9817,0.0183	-29704.62
0.9440,0.0560	-29722.09
0.9819,0.0181	-29692.64
0.9750,0.0250	-29701.06
0.9541,0.0459	-29712.68
0.9643,0.0357	-29715.37
0.9769,0.0231	-29704.65
0.9399,0.0601	-29727.82
0.9805,0.0195	-29708.53
0.9719,0.0281	-29697.79
0.9311,0.0689	-29730.79
0.9663,0.0337	-29708.66
0.9795,0.0205	-29708.47
0.9418,0.0582	-29716.65
0.9768,0.0232	-29712.14
0.9724,0.0276	-29704.85
0.9355,0.0645	-29725.30
0.9624,0.0376	-29725.12
0.9863,0.0137	-29692.03
0.9406,0.0594	-29719.52
0.9810,0.0190	-29704.61
0.9701,0.0299	-29698.05
0.9484,0.0516	-29707.35
0.9625,0.0375	-29702.42
0.9870,0.0130	-29691.95
0.9526,0.0474	-29730.80
0.9843,0.0157	-29696.44
0.9634,0.0366	-29699.03
0.9405,0.0595	-29727.81
0.9623,0.0377	-29715.40
0.9839,0.0161	-29700.58
0.9544,0.0456	-29700.48
0.9858,0.0142	-29700.58
0.9662,0.0338	-29722.08
0.9436,0.0564	-29736.20
0.9619,0.0381	-29715.41
0.9855,0.0145	-29700.58
0.9546,0.0454	-29715.68
0.9861,0.0139	-29700.58
0.9655,0.0345	-29708.70
0.9314,0.0686	-29709.91
0.9593,0.0407	-29721.80
0.9854,0.0146	-29700.58
0.9639,0.0361	-29712.09
0.9875,0.0125	-29705.00
0.9633,0.0367	-29721.92
0.9151,0.0849	-29734.12
0.9482,0.0518	-29719.01
0.9876,0.0124	-29691.87
0.9621,0.0379	-29705.70
0.9862,0.0138	-29696.32
0.9588,0.0412	-29709.21
0.9059,0.0941	-29728.03
0.9385,0.0615	-29736.04
0.9874,0.0126	-29700.62
0.9709,0.0291	-29708.45
0.9867,0.0133	-29696.29
0.9605,0.0395	-29705.87
0.9166,0.0834	-29741.22
0.9474,0.0526	-29716.17
0.9906,0.0094	-29700.86
0.9730,0.0270	-29697.65
0.9860,0.0140	-29696.33
0.9548,0.0452	-29712.62
0.9122,0.0878	-29736.67
0.9503,0.0497	-29715.95
0.9903,0.0097	-29696.21
0.9761,0.0239	-29704.68
0.9839,0.0161	-29696.47
0.9554,0.0446	-29718.71
0.9182,0.0818	-29738.77
0.9530,0.0470	-29712.77
0.9899,0.0101	-29705.37
0.9756,0.0244	-29701.01
0.9833,0.0167	-29704.67
0.9672,0.0328	-29711.99
0.9252,0.0748	-29738.61
0.9573,0.0427	-29715.55
0.9903,0.0097	-29696.21
0.9754,0.0246	-29697.35
0.9764,0.0236	-29693.51
0.9641,0.0359	-29715.37
0.9419,0.0581	-29727.78
0.9602,0.0398	-29712.27
0.9913,0.0087	-29691.49
0.9762,0.0238	-29700.96
0.9729,0.0271	-29701.25
0.9721,0.0279	-29694.22
0.9521,0.0479	-29733.77
0.9639,0.0361	-29712.09
0.9914,0.0086	-29696.23
0.9816,0.0184	-29700.64
0.9670,0.0330	-29701.87
0.9680,0.0320	-29705.16
0.9548,0.0452	-29712.62
0.9604,0.0396	-29702.69
0.9922,0.0078	-29691.42
0.9884,0.0116	-29705.11
0.9602,0.0398	-29715.45
0.9606,0.0394	-29718.63
0.9623,0.0377	-29702.44
0.9632,0.0368	-29708.86
0.9923,0.0077	-29701.13
0.9848,0.0152	-29708.92
0.9584,0.0416	-29718.65
0.9631,0.0369	-29699.08
0.9607,0.0393	-29718.63
0.9586,0.0414	-29709.22
0.9937,0.0063	-29691.34
0.9905,0.0095	-29691.56
0.9682,0.0318	-29701.73
0.9701,0.0299	-29722.40
0.9648,0.0352	-29708.75
0.9620,0.0380	-29718.64
0.9936,0.0064	-29696.38
0.9905,0.0095	-29705.50
0.9723,0.0277	-29711.97
0.9629,0.0371	-29725.16
0.9690,0.0310	-29708.52
0.9663,0.0337	-29708.66
0.9950,0.0050	-29707.22
0.9904,0.0096	-29696.21
0.9769,0.0231	-29700.91
0.9574,0.0426	-29715.55
0.9669,0.0331	-29705.25
0.9691,0.0309	-29711.96
0.9938,0.0062	-29701.49
0.9895,0.0105	-29696.21
0.9716,0.0284	-29701.37
0.9478,0.0522	-29724.83
0.9664,0.0336	-29715.37
