#isoforms=['ENSG00000101294.SE.1.A.up_ENSG00000101294.SE.1.A.SE1_ENSG00000101294.SE.1.A.dn','ENSG00000101294.SE.1.B.up_ENSG00000101294.SE.1.B.dn']	exon_lens=('ENSG00000101294.SE.1.A.up',99),('ENSG00000101294.SE.1.A.SE1',376),('ENSG00000101294.SE.1.A.dn',89),('ENSG00000101294.SE.1.B.up',99),('ENSG00000101294.SE.1.B.dn',89)	iters=5000	burn_in=500	lag=10	percent_accept=97.42	proposal_type=drift	counts=(0,0):786,(1,0):160	assigned_counts=0:160	chrom=chr20	strand=+	mRNA_starts=31527484,31527484	mRNA_ends=31545035,31545035
sampled_psi	log_score
0.8985,0.1015	-986.15
0.8956,0.1044	-986.26
0.9310,0.0690	-984.98
0.9819,0.0181	-983.29
0.9526,0.0474	-984.24
0.9537,0.0463	-984.21
0.9090,0.0910	-985.76
0.9003,0.0997	-986.08
0.9183,0.0817	-985.43
0.9812,0.0188	-983.31
0.9608,0.0392	-983.97
0.9461,0.0539	-984.46
0.9022,0.0978	-986.01
0.8926,0.1074	-986.37
0.9214,0.0786	-985.32
0.9818,0.0182	-983.29
0.9624,0.0376	-983.92
0.9571,0.0429	-984.09
0.9112,0.0888	-985.68
0.9224,0.0776	-985.28
0.9355,0.0645	-984.82
0.9838,0.0162	-983.23
0.9586,0.0414	-984.04
0.9376,0.0624	-984.75
0.9005,0.0995	-986.07
0.9104,0.0896	-985.71
0.9156,0.0844	-985.52
0.9813,0.0187	-983.31
0.9555,0.0445	-984.15
0.9325,0.0675	-984.93
0.8966,0.1034	-986.22
0.8941,0.1059	-986.31
0.9290,0.0710	-985.05
0.9812,0.0188	-983.31
0.9616,0.0384	-983.95
0.9436,0.0564	-984.55
0.8826,0.1174	-986.75
0.8941,0.1059	-986.31
0.9343,0.0657	-984.86
0.9798,0.0202	-983.36
0.9583,0.0417	-984.05
0.9526,0.0474	-984.24
0.8782,0.1218	-986.92
0.8569,0.1431	-987.76
0.9397,0.0603	-984.68
0.9799,0.0201	-983.35
0.9608,0.0392	-983.97
0.9659,0.0341	-983.80
0.8517,0.1483	-987.97
0.8695,0.1305	-987.26
0.9263,0.0737	-985.14
0.9748,0.0252	-983.52
0.9549,0.0451	-984.17
0.9684,0.0316	-983.72
0.8466,0.1534	-988.18
0.8634,0.1366	-987.50
0.9301,0.0699	-985.01
0.9735,0.0265	-983.56
0.9585,0.0415	-984.05
0.9756,0.0244	-983.49
0.8688,0.1312	-987.28
0.8677,0.1323	-987.33
0.9287,0.0713	-985.06
0.9735,0.0265	-983.56
0.9633,0.0367	-983.89
0.9806,0.0194	-983.33
0.8826,0.1174	-986.75
0.9002,0.0998	-986.08
0.9299,0.0701	-985.02
0.9681,0.0319	-983.73
0.9701,0.0299	-983.67
0.9806,0.0194	-983.33
0.8841,0.1159	-986.69
0.9064,0.0936	-985.86
0.9280,0.0720	-985.09
0.9664,0.0336	-983.79
0.9756,0.0244	-983.49
0.9807,0.0193	-983.33
0.9218,0.0782	-985.30
0.8992,0.1008	-986.12
0.9176,0.0824	-985.45
0.9647,0.0353	-983.84
0.9712,0.0288	-983.63
0.9836,0.0164	-983.24
0.9233,0.0767	-985.25
0.9118,0.0882	-985.66
0.9295,0.0705	-985.03
0.9719,0.0281	-983.61
0.9720,0.0280	-983.61
0.9803,0.0197	-983.34
0.9258,0.0742	-985.16
0.9061,0.0939	-985.87
0.9337,0.0663	-984.89
0.9690,0.0310	-983.70
0.9737,0.0263	-983.55
0.9750,0.0250	-983.51
0.9398,0.0602	-984.67
0.9224,0.0776	-985.28
0.9284,0.0716	-985.07
0.9720,0.0280	-983.61
0.9764,0.0236	-983.46
0.9709,0.0291	-983.64
0.9459,0.0541	-984.47
0.9056,0.0944	-985.89
0.9204,0.0796	-985.35
0.9747,0.0253	-983.52
0.9749,0.0251	-983.51
0.9630,0.0370	-983.90
0.9484,0.0516	-984.38
0.9032,0.0968	-985.97
0.9142,0.0858	-985.58
0.9677,0.0323	-983.75
0.9745,0.0255	-983.52
0.9452,0.0548	-984.49
0.9322,0.0678	-984.94
0.8989,0.1011	-986.13
0.9124,0.0876	-985.64
0.9688,0.0312	-983.71
0.9782,0.0218	-983.41
0.9531,0.0469	-984.23
0.9175,0.0825	-985.45
0.8893,0.1107	-986.50
0.8984,0.1016	-986.15
0.9734,0.0266	-983.56
0.9760,0.0240	-983.48
0.9461,0.0539	-984.46
0.9296,0.0704	-985.03
0.8843,0.1157	-986.68
0.8952,0.1048	-986.27
0.9728,0.0272	-983.58
0.9761,0.0239	-983.47
0.9474,0.0526	-984.42
0.9346,0.0654	-984.85
0.8809,0.1191	-986.81
0.8744,0.1256	-987.07
0.9712,0.0288	-983.63
0.9772,0.0228	-983.44
0.9535,0.0465	-984.21
0.9309,0.0691	-984.98
0.8653,0.1347	-987.43
0.8713,0.1287	-987.19
0.9800,0.0200	-983.35
0.9824,0.0176	-983.27
0.9614,0.0386	-983.95
0.9308,0.0692	-984.99
0.8473,0.1527	-988.15
0.8690,0.1310	-987.28
0.9827,0.0173	-983.26
0.9854,0.0146	-983.18
0.9626,0.0374	-983.91
0.9409,0.0591	-984.64
0.8660,0.1340	-987.40
0.8797,0.1203	-986.86
0.9805,0.0195	-983.33
0.9895,0.0105	-983.05
0.9462,0.0538	-984.46
0.9469,0.0531	-984.44
0.8594,0.1406	-987.66
0.8822,0.1178	-986.76
0.9831,0.0169	-983.25
0.9883,0.0117	-983.09
0.9481,0.0519	-984.39
0.9456,0.0544	-984.48
0.8577,0.1423	-987.73
0.8676,0.1324	-987.33
0.9878,0.0122	-983.10
0.9901,0.0099	-983.03
0.9413,0.0587	-984.63
0.9444,0.0556	-984.52
0.8686,0.1314	-987.29
0.8529,0.1471	-987.92
0.9873,0.0127	-983.12
0.9904,0.0096	-983.02
0.9307,0.0693	-984.99
0.9270,0.0730	-985.12
0.8771,0.1229	-986.96
0.8647,0.1353	-987.45
0.9876,0.0124	-983.11
0.9883,0.0117	-983.09
0.9182,0.0818	-985.43
0.9456,0.0544	-984.48
0.8917,0.1083	-986.40
0.8758,0.1242	-987.01
0.9871,0.0129	-983.13
0.9877,0.0123	-983.11
0.9310,0.0690	-984.98
0.9489,0.0511	-984.37
0.8958,0.1042	-986.25
0.8854,0.1146	-986.64
0.9839,0.0161	-983.23
0.9889,0.0111	-983.07
0.9267,0.0733	-985.13
0.9504,0.0496	-984.32
0.9168,0.0832	-985.48
0.8870,0.1130	-986.58
0.9797,0.0203	-983.36
0.9897,0.0103	-983.04
0.9144,0.0856	-985.57
0.9519,0.0481	-984.27
0.9232,0.0768	-985.25
0.8879,0.1121	-986.55
0.9832,0.0168	-983.25
0.9908,0.0092	-983.01
0.8913,0.1087	-986.42
0.9499,0.0501	-984.33
0.9216,0.0784	-985.31
0.8791,0.1209	-986.88
0.9793,0.0207	-983.37
0.9896,0.0104	-983.05
0.8826,0.1174	-986.75
0.9530,0.0470	-984.23
0.9215,0.0785	-985.31
0.8980,0.1020	-986.17
0.9847,0.0153	-983.20
0.9882,0.0118	-983.09
0.8747,0.1253	-987.05
0.9516,0.0484	-984.27
0.9389,0.0611	-984.71
0.8897,0.1103	-986.48
0.9866,0.0134	-983.14
0.9899,0.0101	-983.04
0.8723,0.1277	-987.15
0.9704,0.0296	-983.66
0.9472,0.0528	-984.42
0.9040,0.0960	-985.95
0.9860,0.0140	-983.16
0.9884,0.0116	-983.08
0.8673,0.1327	-987.34
0.9721,0.0279	-983.60
0.9558,0.0442	-984.14
0.9099,0.0901	-985.73
0.9870,0.0130	-983.13
0.9858,0.0142	-983.17
0.8559,0.1441	-987.80
0.9729,0.0271	-983.58
0.9595,0.0405	-984.01
0.9192,0.0808	-985.39
0.9876,0.0124	-983.11
0.9868,0.0132	-983.13
0.8269,0.1731	-989.01
0.9707,0.0293	-983.65
0.9671,0.0329	-983.76
0.9107,0.0893	-985.70
0.9865,0.0135	-983.14
0.9867,0.0133	-983.14
0.8496,0.1504	-988.06
0.9705,0.0295	-983.66
0.9672,0.0328	-983.76
0.9132,0.0868	-985.61
0.9891,0.0109	-983.06
0.9855,0.0145	-983.18
0.8531,0.1469	-987.92
0.9787,0.0213	-983.39
0.9582,0.0418	-984.06
0.9121,0.0879	-985.65
0.9882,0.0118	-983.09
0.9850,0.0150	-983.19
0.8367,0.1633	-988.59
0.9786,0.0214	-983.39
0.9550,0.0450	-984.16
0.9229,0.0771	-985.26
0.9875,0.0125	-983.11
0.9838,0.0162	-983.23
0.8321,0.1679	-988.79
0.9785,0.0215	-983.40
0.9560,0.0440	-984.13
0.9164,0.0836	-985.50
0.9854,0.0146	-983.18
0.9859,0.0141	-983.16
0.8442,0.1558	-988.28
0.9787,0.0213	-983.39
0.9615,0.0385	-983.95
0.9122,0.0878	-985.65
0.9860,0.0140	-983.16
0.9844,0.0156	-983.21
0.8507,0.1493	-988.01
0.9799,0.0201	-983.35
0.9660,0.0340	-983.80
0.9094,0.0906	-985.75
0.9842,0.0158	-983.22
0.9839,0.0161	-983.23
0.8611,0.1389	-987.59
0.9753,0.0247	-983.50
0.9638,0.0362	-983.87
0.8990,0.1010	-986.13
0.9844,0.0156	-983.21
0.9827,0.0173	-983.26
0.8712,0.1288	-987.19
0.9748,0.0252	-983.51
0.9668,0.0332	-983.77
0.8908,0.1092	-986.44
0.9822,0.0178	-983.28
0.9843,0.0157	-983.21
0.8615,0.1385	-987.58
0.9797,0.0203	-983.36
0.9522,0.0478	-984.25
0.9070,0.0930	-985.84
0.9764,0.0236	-983.46
0.9861,0.0139	-983.16
0.8269,0.1731	-989.01
0.9812,0.0188	-983.31
0.9539,0.0461	-984.20
0.9103,0.0897	-985.72
0.9680,0.0320	-983.74
0.9864,0.0136	-983.15
0.8592,0.1408	-987.67
0.9795,0.0205	-983.37
0.9598,0.0402	-984.00
0.9086,0.0914	-985.78
0.9748,0.0252	-983.51
0.9835,0.0165	-983.24
0.8385,0.1615	-988.52
0.9832,0.0168	-983.25
0.9678,0.0322	-983.74
0.9223,0.0777	-985.29
0.9731,0.0269	-983.57
0.9817,0.0183	-983.30
0.8323,0.1677	-988.78
0.9861,0.0139	-983.16
0.9616,0.0384	-983.94
0.9234,0.0766	-985.25
0.9723,0.0277	-983.59
0.9805,0.0195	-983.33
0.8639,0.1361	-987.48
0.9860,0.0140	-983.16
0.9523,0.0477	-984.25
0.9141,0.0859	-985.58
0.9730,0.0270	-983.57
0.9823,0.0177	-983.28
0.8694,0.1306	-987.26
0.9833,0.0167	-983.24
0.9551,0.0449	-984.16
0.9052,0.0948	-985.90
0.9699,0.0301	-983.67
0.9798,0.0202	-983.36
0.8792,0.1208	-986.88
0.9859,0.0141	-983.16
0.9620,0.0380	-983.93
0.9240,0.0760	-985.23
0.9698,0.0302	-983.68
0.9821,0.0179	-983.28
0.8973,0.1027	-986.19
0.9819,0.0181	-983.29
0.9552,0.0448	-984.16
0.9292,0.0708	-985.04
0.9643,0.0357	-983.86
0.9852,0.0148	-983.18
0.9072,0.0928	-985.83
0.9838,0.0162	-983.23
0.9588,0.0412	-984.04
0.9113,0.0887	-985.68
0.9698,0.0302	-983.68
0.9882,0.0118	-983.09
0.9232,0.0768	-985.25
0.9832,0.0168	-983.25
0.9579,0.0421	-984.07
0.9079,0.0921	-985.80
0.9653,0.0347	-983.82
0.9838,0.0162	-983.23
0.9153,0.0847	-985.54
0.9872,0.0128	-983.12
0.9598,0.0402	-984.00
0.9051,0.0949	-985.91
0.9676,0.0324	-983.75
0.9829,0.0171	-983.26
0.9187,0.0813	-985.41
0.9809,0.0191	-983.32
0.9607,0.0393	-983.97
0.8952,0.1048	-986.27
0.9684,0.0316	-983.72
0.9835,0.0165	-983.24
0.9235,0.0765	-985.24
0.9794,0.0206	-983.37
0.9631,0.0369	-983.90
0.8904,0.1096	-986.45
0.9617,0.0383	-983.94
0.9787,0.0213	-983.39
0.9184,0.0816	-985.42
0.9755,0.0245	-983.49
0.9688,0.0312	-983.71
0.9066,0.0934	-985.85
0.9622,0.0378	-983.93
0.9841,0.0159	-983.22
0.9236,0.0764	-985.24
0.9732,0.0268	-983.57
0.9705,0.0295	-983.65
0.9187,0.0813	-985.41
0.9608,0.0392	-983.97
0.9855,0.0145	-983.18
0.9339,0.0661	-984.88
0.9676,0.0324	-983.75
0.9569,0.0431	-984.10
0.9225,0.0775	-985.28
0.9506,0.0494	-984.31
0.9841,0.0159	-983.22
0.9289,0.0711	-985.05
0.9727,0.0273	-983.58
0.9508,0.0492	-984.30
0.9177,0.0823	-985.45
0.9598,0.0402	-984.00
0.9824,0.0176	-983.27
0.9117,0.0883	-985.67
0.9746,0.0254	-983.52
0.9543,0.0457	-984.19
0.9079,0.0921	-985.80
0.9425,0.0575	-984.58
0.9824,0.0176	-983.27
0.9066,0.0934	-985.85
0.9718,0.0282	-983.61
0.9459,0.0541	-984.47
0.9201,0.0799	-985.36
0.9213,0.0787	-985.32
0.9834,0.0166	-983.24
0.9076,0.0924	-985.82
0.9744,0.0256	-983.53
0.9391,0.0609	-984.70
0.9245,0.0755	-985.21
0.9188,0.0812	-985.41
0.9839,0.0161	-983.23
0.8888,0.1112	-986.51
0.9701,0.0299	-983.67
0.9357,0.0643	-984.82
0.9185,0.0815	-985.42
0.9016,0.0984	-986.03
0.9828,0.0172	-983.26
0.8827,0.1173	-986.74
0.9693,0.0307	-983.69
0.9307,0.0693	-984.99
0.9276,0.0724	-985.10
0.8967,0.1033	-986.21
0.9820,0.0180	-983.29
0.8608,0.1392	-987.60
0.9639,0.0361	-983.87
0.9456,0.0544	-984.48
0.9317,0.0683	-984.95
0.9092,0.0908	-985.76
0.9787,0.0213	-983.39
0.8625,0.1375	-987.54
0.9694,0.0306	-983.69
0.9418,0.0582	-984.61
0.9081,0.0919	-985.80
0.9231,0.0769	-985.26
0.9741,0.0259	-983.54
0.8842,0.1158	-986.69
0.9682,0.0318	-983.73
0.9480,0.0520	-984.40
0.9307,0.0693	-984.99
0.9258,0.0742	-985.16
0.9745,0.0255	-983.52
0.8753,0.1247	-987.03
0.9629,0.0371	-983.90
0.9533,0.0467	-984.22
0.9316,0.0684	-984.96
0.9269,0.0731	-985.12
0.9714,0.0286	-983.62
0.8514,0.1486	-987.98
0.9525,0.0475	-984.25
0.9327,0.0673	-984.92
0.9494,0.0506	-984.35
0.9268,0.0732	-985.13
0.9663,0.0337	-983.79
0.8453,0.1547	-988.23
0.9552,0.0448	-984.16
0.9345,0.0655	-984.86
0.9468,0.0532	-984.44
0.9082,0.0918	-985.79
0.9656,0.0344	-983.81
0.8194,0.1806	-989.34
0.9553,0.0447	-984.15
0.9499,0.0501	-984.33
0.9560,0.0440	-984.13
0.8988,0.1012	-986.14
0.9581,0.0419	-984.06
0.8200,0.1800	-989.31
0.9530,0.0470	-984.23
0.9432,0.0568	-984.56
0.9443,0.0557	-984.52
0.9191,0.0809	-985.40
0.9625,0.0375	-983.92
0.8392,0.1608	-988.49
0.9553,0.0447	-984.15
0.9482,0.0518	-984.39
0.9464,0.0536	-984.45
0.9238,0.0762	-985.23
0.9649,0.0351	-983.84
0.8502,0.1498	-988.03
0.9432,0.0568	-984.56
0.9437,0.0563	-984.54
0.9298,0.0702	-985.02
0.9368,0.0632	-984.78
0.9538,0.0462	-984.20
0.8707,0.1293	-987.21
0.9402,0.0598	-984.66
0.9417,0.0583	-984.61
0.9296,0.0704	-985.03
0.9367,0.0633	-984.78
0.9481,0.0519	-984.39
0.8818,0.1182	-986.78
0.9293,0.0707	-985.04
0.9468,0.0532	-984.44
0.9380,0.0620	-984.74
0.9360,0.0640	-984.81
0.9504,0.0496	-984.32
0.8833,0.1167	-986.72
0.9405,0.0595	-984.65
0.9550,0.0450	-984.16
0.9419,0.0581	-984.60
0.9369,0.0631	-984.78
0.9575,0.0425	-984.08
0.8827,0.1173	-986.75
0.9409,0.0591	-984.64
0.9413,0.0587	-984.63
0.9354,0.0646	-984.83
0.9353,0.0647	-984.83
0.9619,0.0381	-983.93
0.8322,0.1678	-988.79
0.9402,0.0598	-984.66
0.9345,0.0655	-984.86
0.9298,0.0702	-985.02
0.9457,0.0543	-984.47
0.9607,0.0393	-983.98
0.8121,0.1879	-989.66
0.9335,0.0665	-984.89
0.9477,0.0523	-984.41
0.9323,0.0677	-984.93
0.9427,0.0573	-984.58
0.9637,0.0363	-983.88
0.8042,0.1958	-990.02
0.9433,0.0567	-984.56
0.9512,0.0488	-984.29
0.9263,0.0737	-985.14
0.9446,0.0554	-984.51
0.9628,0.0372	-983.91
0.8049,0.1951	-989.98
0.9497,0.0503	-984.34
0.9485,0.0515	-984.38
0.9295,0.0705	-985.03
0.9287,0.0713	-985.06
0.9605,0.0395	-983.98
0.7980,0.2020	-990.30
0.9474,0.0526	-984.42
0.9550,0.0450	-984.16
0.9247,0.0753	-985.20
0.9206,0.0794	-985.35
0.9579,0.0421	-984.07
0.7916,0.2084	-990.59
0.9304,0.0696	-985.00
0.9622,0.0378	-983.93
0.9301,0.0699	-985.01
0.9014,0.0986	-986.04
0.9404,0.0596	-984.65
0.7860,0.2140	-990.85
0.9382,0.0618	-984.73
0.9687,0.0313	-983.71
0.9463,0.0537	-984.45
0.8897,0.1103	-986.48
0.9467,0.0533	-984.44
0.8143,0.1857	-989.56
0.9364,0.0636	-984.79
0.9702,0.0298	-983.66
0.9397,0.0603	-984.68
0.8727,0.1273	-987.13
0.9453,0.0547	-984.49
0.8074,0.1926	-989.87
0.9326,0.0674	-984.92
0.9623,0.0377	-983.92
0.9353,0.0647	-984.83
0.8538,0.1462	-987.89
0.9519,0.0481	-984.27
0.8366,0.1634	-988.60
0.9310,0.0690	-984.98
0.9587,0.0413	-984.04
0.9259,0.0741	-985.16
0.8510,0.1490	-988.00
0.9538,0.0462	-984.20
0.8391,0.1609	-988.49
0.9265,0.0735	-985.14
0.9638,0.0362	-983.87
0.9314,0.0686	-984.97
0.8524,0.1476	-987.94
0.9576,0.0424	-984.07
0.8156,0.1844	-989.50
0.9247,0.0753	-985.20
0.9714,0.0286	-983.63
0.9304,0.0696	-985.00
0.8815,0.1185	-986.79
0.9514,0.0486	-984.28
0.8187,0.1813	-989.37
0.9363,0.0637	-984.80
0.9741,0.0259	-983.54
0.9410,0.0590	-984.64
0.8856,0.1144	-986.63
0.9480,0.0520	-984.40
0.8265,0.1735	-989.03
0.9246,0.0754	-985.21
0.9747,0.0253	-983.52
0.9404,0.0596	-984.66
0.8934,0.1066	-986.34
0.9465,0.0535	-984.45
0.8530,0.1470	-987.92
0.9246,0.0754	-985.20
0.9734,0.0266	-983.56
0.9404,0.0596	-984.66
0.8822,0.1178	-986.77
0.9568,0.0432	-984.10
0.8363,0.1637	-988.61
0.9254,0.0746	-985.18
0.9644,0.0356	-983.85
0.9495,0.0505	-984.35
0.8915,0.1085	-986.41
0.9615,0.0385	-983.95
0.8387,0.1613	-988.51
0.9222,0.0778	-985.29
0.9658,0.0342	-983.81
0.9635,0.0365	-983.88
0.9187,0.0813	-985.41
0.9665,0.0335	-983.78
0.8353,0.1647	-988.65
0.9118,0.0882	-985.66
0.9698,0.0302	-983.68
0.9665,0.0335	-983.78
0.9078,0.0922	-985.81
0.9636,0.0364	-983.88
0.8374,0.1626	-988.57
0.9177,0.0823	-985.45
0.9698,0.0302	-983.68
0.9637,0.0363	-983.87
0.8981,0.1019	-986.16
0.9679,0.0321	-983.74
0.8357,0.1643	-988.64
0.9303,0.0697	-985.00
0.9699,0.0301	-983.67
0.9604,0.0396	-983.98
0.9037,0.0963	-985.96
0.9661,0.0339	-983.80
0.8465,0.1535	-988.18
0.9349,0.0651	-984.84
0.9659,0.0341	-983.80
0.9560,0.0440	-984.13
0.8901,0.1099	-986.46
0.9638,0.0362	-983.87
0.8524,0.1476	-987.94
0.9408,0.0592	-984.64
0.9735,0.0265	-983.56
0.9619,0.0381	-983.93
0.8980,0.1020	-986.17
0.9691,0.0309	-983.70
0.8548,0.1452	-987.84
0.9439,0.0561	-984.54
0.9738,0.0262	-983.55
0.9663,0.0337	-983.79
0.9269,0.0731	-985.12
0.9617,0.0383	-983.94
0.8660,0.1340	-987.40
0.9463,0.0537	-984.46
0.9723,0.0277	-983.60
0.9657,0.0343	-983.81
0.9357,0.0643	-984.82
0.9640,0.0360	-983.87
0.8786,0.1214	-986.90
0.9381,0.0619	-984.73
0.9742,0.0258	-983.53
0.9706,0.0294	-983.65
0.9399,0.0601	-984.67
0.9569,0.0431	-984.10
0.8722,0.1278	-987.15
0.9202,0.0798	-985.36
0.9737,0.0263	-983.55
0.9743,0.0257	-983.53
0.9452,0.0548	-984.49
0.9534,0.0466	-984.21
0.8629,0.1371	-987.52
0.9060,0.0940	-985.87
0.9677,0.0323	-983.75
0.9749,0.0251	-983.51
0.9334,0.0666	-984.90
0.9608,0.0392	-983.97
0.8588,0.1412	-987.68
0.8628,0.1372	-987.52
0.9627,0.0373	-983.91
0.9726,0.0274	-983.59
0.9134,0.0866	-985.60
0.9604,0.0396	-983.98
0.8703,0.1297	-987.22
0.8429,0.1571	-988.33
0.9520,0.0480	-984.26
0.9660,0.0340	-983.80
0.9044,0.0956	-985.93
0.9587,0.0413	-984.04
0.8670,0.1330	-987.36
0.8387,0.1613	-988.51
0.9547,0.0453	-984.17
0.9532,0.0468	-984.22
0.9006,0.0994	-986.07
0.9530,0.0470	-984.23
0.8358,0.1642	-988.63
0.8157,0.1843	-989.50
0.9515,0.0485	-984.28
0.9553,0.0447	-984.15
0.9124,0.0876	-985.64
0.9409,0.0591	-984.64
0.8380,0.1620	-988.54
0.8057,0.1943	-989.94
0.9580,0.0420	-984.06
0.9527,0.0473	-984.24
0.9241,0.0759	-985.22
0.9503,0.0497	-984.32
0.8509,0.1491	-988.00
0.7803,0.2197	-991.13
0.9484,0.0516	-984.38
0.9417,0.0583	-984.61
0.9087,0.0913	-985.77
0.9420,0.0580	-984.60
0.8317,0.1683	-988.81
0.8173,0.1827	-989.43
0.9416,0.0584	-984.61
0.9356,0.0644	-984.82
0.9086,0.0914	-985.78
0.9346,0.0654	-984.85
0.8607,0.1393	-987.61
0.8439,0.1561	-988.29
0.9487,0.0513	-984.37
0.9352,0.0648	-984.83
0.9380,0.0620	-984.74
0.9330,0.0670	-984.91
0.8577,0.1423	-987.73
0.8595,0.1405	-987.65
0.9505,0.0495	-984.31
0.9451,0.0549	-984.49
0.9431,0.0569	-984.56
0.9481,0.0519	-984.39
0.8875,0.1125	-986.56
0.8875,0.1125	-986.56
0.9469,0.0531	-984.44
0.9250,0.0750	-985.19
0.9437,0.0563	-984.54
0.9563,0.0437	-984.12
0.9007,0.0993	-986.07
0.9084,0.0916	-985.78
0.9567,0.0433	-984.11
0.9200,0.0800	-985.37
0.9526,0.0474	-984.24
0.9571,0.0429	-984.09
0.8951,0.1049	-986.28
0.9140,0.0860	-985.58
0.9570,0.0430	-984.10
0.9282,0.0718	-985.08
0.9528,0.0472	-984.24
0.9485,0.0515	-984.38
0.9104,0.0896	-985.71
0.9292,0.0708	-985.04
0.9545,0.0455	-984.18
0.9352,0.0648	-984.83
0.9628,0.0372	-983.91
0.9517,0.0483	-984.27
0.9086,0.0914	-985.78
0.9369,0.0631	-984.77
0.9586,0.0414	-984.04
0.9358,0.0642	-984.81
0.9643,0.0357	-983.85
0.9451,0.0549	-984.50
0.9154,0.0846	-985.53
0.9505,0.0495	-984.31
0.9621,0.0379	-983.93
0.9449,0.0551	-984.50
0.9651,0.0349	-983.83
0.9432,0.0568	-984.56
0.9434,0.0566	-984.55
0.9658,0.0342	-983.81
0.9619,0.0381	-983.94
0.9472,0.0528	-984.42
0.9693,0.0307	-983.69
0.9390,0.0610	-984.70
0.9340,0.0660	-984.87
0.9637,0.0363	-983.88
0.9626,0.0374	-983.91
0.9375,0.0625	-984.75
0.9682,0.0318	-983.73
0.9437,0.0563	-984.54
0.9446,0.0554	-984.51
0.9720,0.0280	-983.61
0.9709,0.0291	-983.64
0.9347,0.0653	-984.85
0.9681,0.0319	-983.73
0.9290,0.0710	-985.05
0.9386,0.0614	-984.72
0.9732,0.0268	-983.57
0.9742,0.0258	-983.54
0.9473,0.0527	-984.42
0.9749,0.0251	-983.51
0.9391,0.0609	-984.70
0.9346,0.0654	-984.86
0.9755,0.0245	-983.49
0.9774,0.0226	-983.43
0.9337,0.0663	-984.89
0.9688,0.0312	-983.71
0.9553,0.0447	-984.15
0.9311,0.0689	-984.98
0.9787,0.0213	-983.39
0.9772,0.0228	-983.44
0.9341,0.0659	-984.87
0.9735,0.0265	-983.56
0.9481,0.0519	-984.39
0.9353,0.0647	-984.83
0.9776,0.0224	-983.42
0.9811,0.0189	-983.31
0.9474,0.0526	-984.42
0.9709,0.0291	-983.64
0.9572,0.0428	-984.09
0.9435,0.0565	-984.55
0.9809,0.0191	-983.32
0.9825,0.0175	-983.27
0.9453,0.0547	-984.49
0.9702,0.0298	-983.66
0.9587,0.0413	-984.04
0.9411,0.0589	-984.63
0.9816,0.0184	-983.30
0.9782,0.0218	-983.41
0.9415,0.0585	-984.62
0.9746,0.0254	-983.52
0.9664,0.0336	-983.79
0.9526,0.0474	-984.24
0.9824,0.0176	-983.27
0.9742,0.0258	-983.54
0.9381,0.0619	-984.73
0.9713,0.0287	-983.63
0.9714,0.0286	-983.63
0.9510,0.0490	-984.30
0.9792,0.0208	-983.37
0.9664,0.0336	-983.79
0.9380,0.0620	-984.74
0.9686,0.0314	-983.71
0.9710,0.0290	-983.64
0.9545,0.0455	-984.18
0.9804,0.0196	-983.34
0.9702,0.0298	-983.66
0.9362,0.0638	-984.80
0.9690,0.0310	-983.70
0.9697,0.0303	-983.68
0.9580,0.0420	-984.06
0.9835,0.0165	-983.24
0.9767,0.0233	-983.45
0.9245,0.0755	-985.21
0.9675,0.0325	-983.75
0.9723,0.0277	-983.60
0.9619,0.0381	-983.94
0.9795,0.0205	-983.37
0.9756,0.0244	-983.49
0.9217,0.0783	-985.31
0.9670,0.0330	-983.77
0.9772,0.0228	-983.44
0.9564,0.0436	-984.12
0.9780,0.0220	-983.41
0.9753,0.0247	-983.50
0.9149,0.0851	-985.55
0.9668,0.0332	-983.78
0.9750,0.0250	-983.51
0.9514,0.0486	-984.28
0.9765,0.0235	-983.46
0.9779,0.0221	-983.42
0.9133,0.0867	-985.61
0.9675,0.0325	-983.75
0.9721,0.0279	-983.60
0.9498,0.0502	-984.34
0.9719,0.0281	-983.61
0.9838,0.0162	-983.23
0.8993,0.1007	-986.12
0.9695,0.0305	-983.68
0.9732,0.0268	-983.57
0.9451,0.0549	-984.49
0.9695,0.0305	-983.69
0.9730,0.0270	-983.57
0.8801,0.1199	-986.84
0.9684,0.0316	-983.72
0.9764,0.0236	-983.46
0.9418,0.0582	-984.61
0.9657,0.0343	-983.81
0.9769,0.0231	-983.45
0.8616,0.1384	-987.57
0.9664,0.0336	-983.79
0.9778,0.0222	-983.42
0.9345,0.0655	-984.86
0.9690,0.0310	-983.70
0.9797,0.0203	-983.36
