#isoforms=['ENSG00000186575.SE.4.A.up_ENSG00000186575.SE.4.A.SE1_ENSG00000186575.SE.4.A.dn','ENSG00000186575.SE.4.B.up_ENSG00000186575.SE.4.B.dn']	exon_lens=('ENSG00000186575.SE.4.A.up',128),('ENSG00000186575.SE.4.A.SE1',163),('ENSG00000186575.SE.4.A.dn',3847),('ENSG00000186575.SE.4.B.up',128),('ENSG00000186575.SE.4.B.dn',194)	iters=5000	burn_in=500	lag=10	percent_accept=98.30	proposal_type=drift	counts=(0,0):52,(1,0):142,(1,1):3	assigned_counts=0:145	chrom=chr22	strand=+	mRNA_starts=29678196,29678196	mRNA_ends=29698598,29694945
sampled_psi	log_score
0.8681,0.1319	-1205.21
0.8714,0.1286	-1207.09
0.7460,0.2540	-1207.77
0.7114,0.2886	-1208.11
0.9130,0.0870	-1207.12
0.8898,0.1102	-1204.99
0.8621,0.1379	-1207.11
0.8711,0.1289	-1207.09
0.7544,0.2456	-1206.58
0.7064,0.2936	-1208.16
0.9102,0.0898	-1207.11
0.9042,0.0958	-1207.10
0.8749,0.1251	-1205.14
0.8598,0.1402	-1207.12
0.7638,0.2362	-1209.97
0.7053,0.2947	-1208.17
0.9117,0.0883	-1207.11
0.8688,0.1312	-1207.10
0.8670,0.1330	-1205.23
0.8728,0.1272	-1207.09
0.7269,0.2731	-1207.95
0.7207,0.2793	-1208.01
0.9052,0.0948	-1207.10
0.8740,0.1260	-1205.15
0.8816,0.1184	-1205.08
0.9056,0.0944	-1204.84
0.7407,0.2593	-1206.77
0.7041,0.2959	-1207.32
0.9193,0.0807	-1204.71
0.8820,0.1180	-1205.07
0.8567,0.1433	-1205.34
0.9101,0.0899	-1204.79
0.7472,0.2528	-1207.76
0.6977,0.3023	-1207.42
0.9310,0.0690	-1207.20
0.8790,0.1210	-1205.10
0.8589,0.1411	-1205.31
0.9102,0.0898	-1207.11
0.7126,0.2874	-1209.00
0.7196,0.2804	-1207.08
0.9225,0.0775	-1207.15
0.9084,0.0916	-1204.81
0.8344,0.1656	-1205.58
0.8813,0.1187	-1205.08
0.7127,0.2873	-1208.10
0.7523,0.2477	-1207.72
0.9222,0.0778	-1204.68
0.9173,0.0827	-1204.72
0.8693,0.1307	-1205.20
0.8626,0.1374	-1207.11
0.7550,0.2450	-1207.70
0.6955,0.3045	-1208.28
0.9319,0.0681	-1207.21
0.9151,0.0849	-1204.75
0.8669,0.1331	-1207.10
0.8748,0.1252	-1207.09
0.7707,0.2293	-1206.36
0.6757,0.3243	-1208.52
0.9310,0.0690	-1204.60
0.9289,0.0711	-1204.62
0.8556,0.1444	-1207.13
0.8828,0.1172	-1205.06
0.7537,0.2463	-1207.71
0.6381,0.3619	-1209.03
0.9335,0.0665	-1204.57
0.9507,0.0493	-1204.42
0.8400,0.1600	-1205.52
0.8726,0.1274	-1205.17
0.7378,0.2622	-1207.85
0.6603,0.3397	-1208.72
0.9331,0.0669	-1204.58
0.9430,0.0570	-1204.49
0.8514,0.1486	-1205.39
0.8717,0.1283	-1205.18
0.7423,0.2577	-1206.75
0.6715,0.3285	-1209.29
0.9222,0.0778	-1204.68
0.9388,0.0612	-1204.53
0.8869,0.1131	-1205.02
0.8722,0.1278	-1207.09
0.7198,0.2802	-1208.02
0.6247,0.3753	-1209.23
0.9088,0.0912	-1204.81
0.9321,0.0679	-1204.59
0.8940,0.1060	-1204.95
0.8704,0.1296	-1207.09
0.7249,0.2751	-1207.00
0.7255,0.2745	-1206.99
0.9239,0.0761	-1204.66
0.9374,0.0626	-1207.25
0.9103,0.0897	-1204.79
0.8828,0.1172	-1205.06
0.7354,0.2646	-1207.87
0.6855,0.3145	-1209.18
0.9314,0.0686	-1204.59
0.9226,0.0774	-1207.15
0.9064,0.0936	-1204.83
0.8637,0.1363	-1205.26
0.7807,0.2193	-1206.23
0.7030,0.2970	-1208.20
0.9299,0.0701	-1204.61
0.9383,0.0617	-1204.53
0.8734,0.1266	-1205.16
0.8621,0.1379	-1205.28
0.7876,0.2124	-1206.14
0.7226,0.2774	-1207.99
0.9381,0.0619	-1204.53
0.9330,0.0670	-1204.58
0.8823,0.1177	-1207.08
0.8738,0.1262	-1207.09
0.8039,0.1961	-1207.35
0.7724,0.2276	-1206.34
0.9367,0.0633	-1204.55
0.9451,0.0549	-1204.47
0.8984,0.1016	-1204.91
0.8764,0.1236	-1205.13
0.7662,0.2338	-1207.61
0.7375,0.2625	-1207.85
0.9463,0.0537	-1204.46
0.9467,0.0533	-1207.33
0.8739,0.1261	-1205.15
0.8868,0.1132	-1207.08
0.7472,0.2528	-1206.68
0.7613,0.2387	-1206.49
0.9534,0.0466	-1204.40
0.9390,0.0610	-1204.52
0.8999,0.1001	-1204.89
0.8834,0.1166	-1205.06
0.7319,0.2681	-1208.91
0.7509,0.2491	-1208.84
0.9622,0.0378	-1207.56
0.9283,0.0717	-1204.62
0.9088,0.0912	-1204.81
0.8675,0.1325	-1205.22
0.7465,0.2535	-1207.77
0.7571,0.2429	-1207.68
0.9715,0.0285	-1204.24
0.9328,0.0672	-1204.58
0.8962,0.1038	-1204.93
0.8257,0.1743	-1205.68
0.7372,0.2628	-1207.85
0.7587,0.2413	-1206.52
0.9683,0.0317	-1204.27
0.9389,0.0611	-1204.53
0.8895,0.1105	-1205.00
0.7969,0.2031	-1207.39
0.7648,0.2352	-1206.44
0.7401,0.2599	-1206.78
0.9593,0.0407	-1204.35
0.9332,0.0668	-1207.21
0.8823,0.1177	-1207.08
0.7898,0.2102	-1206.11
0.7658,0.2342	-1206.43
0.7991,0.2009	-1206.00
0.9575,0.0425	-1204.36
0.9189,0.0811	-1204.71
0.8999,0.1001	-1204.89
0.8163,0.1837	-1205.79
0.8066,0.1934	-1205.91
0.7967,0.2033	-1206.03
0.9487,0.0513	-1204.44
0.9140,0.0860	-1204.76
0.8897,0.1103	-1207.08
0.8054,0.1946	-1207.34
0.7806,0.2194	-1206.23
0.8308,0.1692	-1207.21
0.9483,0.0517	-1204.44
0.9255,0.0745	-1204.65
0.8940,0.1060	-1204.95
0.7906,0.2094	-1206.10
0.7859,0.2141	-1207.46
0.7994,0.2006	-1205.99
0.9539,0.0461	-1204.39
0.9278,0.0722	-1204.63
0.8737,0.1263	-1205.16
0.7551,0.2449	-1206.57
0.8118,0.1882	-1205.85
0.7970,0.2030	-1207.39
0.9485,0.0515	-1204.44
0.9324,0.0676	-1204.58
0.8730,0.1270	-1205.16
0.7615,0.2385	-1206.48
0.7966,0.2034	-1207.39
0.7876,0.2124	-1206.14
0.9496,0.0504	-1204.43
0.9428,0.0572	-1204.49
0.8724,0.1276	-1205.17
0.8270,0.1730	-1205.67
0.8215,0.1785	-1210.31
0.7929,0.2071	-1207.42
0.9464,0.0536	-1204.46
0.9526,0.0474	-1204.40
0.8582,0.1418	-1205.32
0.8434,0.1566	-1207.16
0.8708,0.1292	-1205.19
0.8007,0.1993	-1205.98
0.9479,0.0521	-1204.45
0.9604,0.0396	-1204.34
0.9014,0.0986	-1204.88
0.8154,0.1846	-1207.29
0.8823,0.1177	-1205.07
0.8090,0.1910	-1207.32
0.9529,0.0471	-1204.40
0.9628,0.0372	-1204.32
0.9025,0.0975	-1204.87
0.8171,0.1829	-1205.78
0.8736,0.1264	-1205.16
0.7495,0.2505	-1208.84
0.9483,0.0517	-1204.44
0.9590,0.0410	-1204.35
0.9080,0.0920	-1204.81
0.8096,0.1904	-1207.32
0.8980,0.1020	-1204.91
0.7497,0.2503	-1208.84
0.9531,0.0469	-1204.40
0.9638,0.0362	-1204.31
0.9178,0.0822	-1207.13
0.7655,0.2345	-1206.43
0.9103,0.0897	-1204.79
0.7418,0.2582	-1207.81
0.9512,0.0488	-1204.42
0.9627,0.0373	-1204.32
0.9406,0.0594	-1207.27
0.7273,0.2727	-1206.97
0.9164,0.0836	-1207.13
0.7154,0.2846	-1207.15
0.9444,0.0556	-1204.48
0.9627,0.0373	-1204.32
0.9276,0.0724	-1204.63
0.6933,0.3067	-1208.31
0.9134,0.0866	-1204.76
0.6900,0.3100	-1209.95
0.9500,0.0500	-1204.43
0.9594,0.0406	-1204.34
0.9155,0.0845	-1207.12
0.7176,0.2824	-1208.98
0.9086,0.0914	-1204.81
0.7542,0.2458	-1208.83
0.9457,0.0543	-1204.47
0.9585,0.0415	-1207.49
0.9004,0.0996	-1204.89
0.7485,0.2515	-1207.75
0.9335,0.0665	-1204.58
0.7755,0.2245	-1207.54
0.9385,0.0615	-1207.25
0.9689,0.0311	-1207.70
0.9031,0.0969	-1204.86
0.7430,0.2570	-1206.74
0.9255,0.0745	-1204.65
0.7599,0.2401	-1206.51
0.9279,0.0721	-1204.63
0.9619,0.0381	-1204.32
0.8710,0.1290	-1205.18
0.7542,0.2458	-1207.70
0.9372,0.0628	-1204.54
0.7660,0.2340	-1206.42
0.9114,0.0886	-1204.78
0.9661,0.0339	-1204.29
0.8689,0.1311	-1207.10
0.7840,0.2160	-1210.06
0.9423,0.0577	-1204.50
0.7771,0.2229	-1206.28
0.9147,0.0853	-1204.75
0.9694,0.0306	-1204.26
0.8790,0.1210	-1207.08
0.7864,0.2136	-1206.16
0.9440,0.0560	-1204.48
0.7954,0.2046	-1206.04
0.9180,0.0820	-1204.72
0.9665,0.0335	-1204.28
0.8921,0.1079	-1209.19
0.7181,0.2819	-1207.10
0.9517,0.0483	-1204.41
0.7939,0.2061	-1206.06
0.8962,0.1038	-1204.93
0.9743,0.0257	-1204.22
0.8901,0.1099	-1204.99
0.7105,0.2895	-1207.22
0.9494,0.0506	-1207.36
0.8025,0.1975	-1207.36
0.9040,0.0960	-1204.85
0.9749,0.0251	-1204.21
0.8868,0.1132	-1205.02
0.6627,0.3373	-1208.69
0.9542,0.0458	-1204.39
0.8177,0.1823	-1205.77
0.8703,0.1297	-1205.19
0.9793,0.0207	-1204.18
0.8748,0.1252	-1209.03
0.6473,0.3527	-1208.90
0.9612,0.0388	-1204.33
0.8215,0.1785	-1207.26
0.8549,0.1451	-1207.13
0.9771,0.0229	-1204.19
0.8499,0.1501	-1205.41
0.7033,0.2967	-1208.20
0.9583,0.0417	-1204.35
0.7855,0.2145	-1206.17
0.8886,0.1114	-1207.08
0.9732,0.0268	-1204.23
0.8646,0.1354	-1205.25
0.6587,0.3413	-1208.08
0.9558,0.0442	-1204.38
0.7993,0.2007	-1208.76
0.8892,0.1108	-1205.00
0.9743,0.0257	-1204.22
0.8720,0.1280	-1205.17
0.7247,0.2753	-1207.01
0.9609,0.0391	-1204.33
0.8096,0.1904	-1205.87
0.8908,0.1092	-1207.08
0.9768,0.0232	-1204.20
0.8654,0.1346	-1205.24
0.7392,0.2608	-1206.79
0.9490,0.0510	-1204.44
0.7735,0.2265	-1207.55
0.8927,0.1073	-1204.96
0.9773,0.0227	-1207.95
0.8564,0.1436	-1207.12
0.7571,0.2429	-1206.54
0.9498,0.0502	-1204.43
0.7667,0.2333	-1207.60
0.8761,0.1239	-1205.13
0.9791,0.0209	-1204.18
0.8832,0.1168	-1205.06
0.7488,0.2512	-1206.66
0.9447,0.0553	-1210.15
0.7952,0.2048	-1207.40
0.8868,0.1132	-1205.02
0.9706,0.0294	-1204.25
0.8676,0.1324	-1207.10
0.7672,0.2328	-1208.79
0.9521,0.0479	-1204.41
0.8084,0.1916	-1205.89
0.9092,0.0908	-1204.80
0.9645,0.0355	-1204.30
0.8202,0.1798	-1205.74
0.7726,0.2274	-1207.56
0.9480,0.0520	-1204.45
0.8289,0.1711	-1205.64
0.8923,0.1077	-1204.97
0.9627,0.0373	-1204.32
0.8100,0.1900	-1207.32
0.7480,0.2520	-1207.76
0.9438,0.0562	-1207.30
0.8395,0.1605	-1205.52
0.8695,0.1305	-1207.10
0.9632,0.0368	-1204.31
0.7993,0.2007	-1206.00
0.7618,0.2382	-1206.48
0.9525,0.0475	-1204.41
0.8537,0.1463	-1205.37
0.8650,0.1350	-1207.10
0.9661,0.0339	-1204.29
0.7684,0.2316	-1206.39
0.7555,0.2445	-1206.57
0.9331,0.0669	-1204.58
0.9021,0.0979	-1204.87
0.8535,0.1465	-1205.37
0.9654,0.0346	-1204.29
0.7274,0.2726	-1207.95
0.7845,0.2155	-1206.18
0.9293,0.0707	-1204.61
0.8896,0.1104	-1207.08
0.8226,0.1774	-1205.72
0.9655,0.0345	-1204.29
0.7588,0.2412	-1206.52
0.7866,0.2134	-1207.46
0.9280,0.0720	-1204.63
0.8658,0.1342	-1205.24
0.8105,0.1895	-1207.31
0.9712,0.0288	-1204.24
0.7969,0.2031	-1206.03
0.8109,0.1891	-1205.86
0.9245,0.0755	-1204.66
0.8361,0.1639	-1205.56
0.8083,0.1917	-1205.89
0.9707,0.0293	-1204.25
0.8018,0.1982	-1205.97
0.8122,0.1878	-1205.84
0.9017,0.0983	-1207.09
0.8403,0.1597	-1205.52
0.8155,0.1845	-1208.77
0.9630,0.0370	-1204.31
0.7690,0.2310	-1207.59
0.8516,0.1484	-1205.39
0.9147,0.0853	-1204.75
0.8424,0.1576	-1205.49
0.8244,0.1756	-1205.70
0.9474,0.0526	-1204.45
0.8049,0.1951	-1205.93
0.8550,0.1450	-1205.35
0.9241,0.0759	-1204.66
0.8559,0.1441	-1205.34
0.8252,0.1748	-1205.69
0.9446,0.0554	-1204.48
0.7759,0.2241	-1208.78
0.8299,0.1701	-1205.63
0.9399,0.0601	-1204.52
0.8403,0.1597	-1207.18
0.8079,0.1921	-1208.76
0.9502,0.0498	-1204.43
0.7755,0.2245	-1206.30
0.8166,0.1834	-1205.79
0.9339,0.0661	-1207.22
0.8632,0.1368	-1207.11
0.8192,0.1808	-1205.76
0.9435,0.0565	-1204.49
0.7909,0.2091	-1206.10
0.8244,0.1756	-1208.79
0.9317,0.0683	-1207.20
0.8698,0.1302	-1205.20
0.8094,0.1906	-1207.32
0.9358,0.0642	-1204.55
0.8006,0.1994	-1205.98
0.8543,0.1457	-1205.36
0.9163,0.0837	-1204.73
0.8938,0.1062	-1207.08
0.8045,0.1955	-1205.93
0.9435,0.0565	-1204.49
0.8145,0.1855	-1205.81
0.8534,0.1466	-1205.37
0.9067,0.0933	-1204.83
0.9215,0.0785	-1204.69
0.7898,0.2102	-1206.11
0.9612,0.0388	-1204.33
0.8121,0.1879	-1205.84
0.8434,0.1566	-1205.48
0.9129,0.0871	-1204.77
0.9311,0.0689	-1204.60
0.7746,0.2254	-1208.78
0.9532,0.0468	-1204.40
0.8206,0.1794	-1207.26
0.8207,0.1793	-1205.74
0.8893,0.1107	-1205.00
0.9307,0.0693	-1204.60
0.8113,0.1887	-1205.85
0.9381,0.0619	-1207.25
0.8057,0.1943	-1207.34
0.8509,0.1491	-1207.14
0.8841,0.1159	-1207.08
0.9378,0.0622	-1204.54
0.8013,0.1987	-1205.97
0.9437,0.0563	-1204.48
0.8085,0.1915	-1207.32
0.8291,0.1709	-1205.64
0.8847,0.1153	-1205.04
0.9289,0.0711	-1204.62
0.7984,0.2016	-1207.38
0.9551,0.0449	-1204.38
0.8020,0.1980	-1207.36
0.8352,0.1648	-1207.20
0.8627,0.1373	-1207.11
0.9076,0.0924	-1204.82
0.7875,0.2125	-1208.76
0.9431,0.0569	-1207.30
0.7977,0.2023	-1206.02
0.8311,0.1689	-1205.62
0.8282,0.1718	-1205.65
0.8907,0.1093	-1204.98
0.7973,0.2027	-1207.39
0.9436,0.0564	-1204.48
0.7734,0.2266	-1208.78
0.8279,0.1721	-1205.66
0.8209,0.1791	-1207.26
0.8819,0.1181	-1207.08
0.8017,0.1983	-1205.97
0.9235,0.0765	-1204.67
0.7683,0.2317	-1206.39
0.8597,0.1403	-1205.30
0.8410,0.1590	-1205.51
0.8885,0.1115	-1205.00
0.8129,0.1871	-1205.83
0.9130,0.0870	-1204.77
0.7800,0.2200	-1208.77
0.8752,0.1248	-1207.09
0.8098,0.1902	-1205.87
0.8901,0.1099	-1204.99
0.7600,0.2400	-1208.81
0.9109,0.0891	-1204.79
0.7855,0.2145	-1207.47
0.8579,0.1421	-1205.32
0.8062,0.1938	-1205.91
0.8863,0.1137	-1209.13
0.7736,0.2264	-1207.55
0.9048,0.0952	-1204.84
0.7752,0.2248	-1207.54
0.8637,0.1363	-1207.11
0.8174,0.1826	-1207.28
0.8773,0.1227	-1207.09
0.7836,0.2164	-1207.48
0.8829,0.1171	-1205.06
0.7869,0.2131	-1206.15
0.8359,0.1641	-1205.57
0.8260,0.1740	-1207.24
0.8478,0.1522	-1207.15
0.7550,0.2450	-1207.70
0.8975,0.1025	-1204.92
0.7926,0.2074	-1207.42
0.8754,0.1246	-1205.14
0.8677,0.1323	-1208.98
0.8667,0.1333	-1207.10
0.7244,0.2756	-1207.01
0.8948,0.1052	-1204.94
0.7661,0.2339	-1206.42
0.8745,0.1255	-1207.09
0.8691,0.1309	-1205.20
0.8786,0.1214	-1207.08
0.7594,0.2406	-1206.51
0.8727,0.1273	-1207.09
0.7730,0.2270	-1207.56
0.8751,0.1249	-1205.14
0.8789,0.1211	-1207.08
0.8960,0.1040	-1204.93
0.7400,0.2600	-1208.87
0.8700,0.1300	-1207.10
0.7905,0.2095	-1206.11
0.8986,0.1014	-1207.09
0.8728,0.1272	-1205.17
0.8968,0.1032	-1204.92
0.7612,0.2388	-1207.65
0.8672,0.1328	-1207.10
0.8120,0.1880	-1207.31
0.8763,0.1237	-1205.13
0.8743,0.1257	-1205.15
0.8880,0.1120	-1207.08
0.8044,0.1956	-1205.93
0.8410,0.1590	-1207.17
0.8188,0.1812	-1205.76
0.8819,0.1181	-1207.08
0.8655,0.1345	-1205.24
0.8823,0.1177	-1207.08
0.7594,0.2406	-1208.81
0.8199,0.1801	-1205.75
0.8283,0.1717	-1207.23
0.8746,0.1254	-1207.09
0.8507,0.1493	-1207.14
0.8914,0.1086	-1207.08
0.7262,0.2738	-1207.96
0.8029,0.1971	-1205.95
0.8142,0.1858	-1208.77
0.8731,0.1269	-1205.16
0.8663,0.1337	-1205.23
0.8717,0.1283	-1209.01
0.7455,0.2545	-1208.85
0.8036,0.1964	-1205.94
0.8204,0.1796	-1208.78
0.8766,0.1234	-1209.05
0.8370,0.1630	-1207.19
0.8473,0.1527	-1205.44
0.7685,0.2315	-1206.39
0.7916,0.2084	-1206.09
0.8271,0.1729	-1207.23
0.9121,0.0879	-1204.77
0.8671,0.1329	-1207.10
0.8533,0.1467	-1205.37
0.8197,0.1803	-1207.27
0.7695,0.2305	-1207.58
0.8029,0.1971	-1205.95
0.9147,0.0853	-1204.75
0.8647,0.1353	-1205.25
0.8577,0.1423	-1208.92
0.8416,0.1584	-1205.50
0.7630,0.2370	-1207.63
0.7843,0.2157	-1206.18
0.9058,0.0942	-1204.84
0.8649,0.1351	-1207.10
0.8320,0.1680	-1205.61
0.8462,0.1538	-1205.45
0.7802,0.2198	-1207.50
0.7603,0.2397	-1206.50
0.8965,0.1035	-1204.93
0.8669,0.1331	-1205.23
0.8005,0.1995	-1205.98
0.8660,0.1340	-1207.10
0.8144,0.1856	-1207.29
0.7785,0.2215	-1206.26
0.9125,0.0875	-1204.77
0.8428,0.1572	-1208.85
0.7736,0.2264	-1206.32
0.8604,0.1396	-1205.30
0.8097,0.1903	-1207.32
0.8005,0.1995	-1205.98
0.9170,0.0830	-1204.73
0.8504,0.1496	-1207.14
0.7604,0.2396	-1206.50
0.8530,0.1470	-1205.38
0.8538,0.1462	-1205.37
0.7997,0.2003	-1205.99
0.9227,0.0773	-1204.67
0.8673,0.1327	-1205.22
0.7456,0.2544	-1207.78
0.8594,0.1406	-1205.31
0.8542,0.1458	-1208.90
0.8234,0.1766	-1207.25
0.9449,0.0551	-1204.47
0.8638,0.1362	-1205.26
0.7023,0.2977	-1208.21
0.8605,0.1395	-1205.29
0.8417,0.1583	-1205.50
0.8481,0.1519	-1205.43
0.9259,0.0741	-1204.64
0.8777,0.1223	-1205.11
0.7410,0.2590	-1209.92
0.8785,0.1215	-1207.08
0.8301,0.1699	-1205.63
0.8348,0.1652	-1207.20
0.9197,0.0803	-1204.70
0.8734,0.1266	-1207.09
0.7323,0.2677	-1207.90
0.8889,0.1111	-1205.00
0.8014,0.1986	-1205.97
0.8500,0.1500	-1207.14
0.9160,0.0840	-1207.13
0.8903,0.1097	-1204.99
0.7122,0.2878	-1207.19
0.9006,0.0994	-1204.89
0.8174,0.1826	-1205.78
0.8710,0.1290	-1205.18
0.9220,0.0780	-1204.68
0.8829,0.1171	-1207.08
0.7499,0.2501	-1206.64
0.9070,0.0930	-1204.82
0.8203,0.1797	-1205.74
0.8815,0.1185	-1205.08
0.9286,0.0714	-1207.19
0.9071,0.0929	-1204.82
0.8147,0.1853	-1207.29
0.9155,0.0845	-1204.74
0.8067,0.1933	-1205.91
0.8698,0.1302	-1207.10
0.9368,0.0632	-1204.55
0.8851,0.1149	-1205.04
0.8227,0.1773	-1207.25
0.9158,0.0842	-1207.13
0.8316,0.1684	-1205.61
0.8655,0.1345	-1205.24
0.9120,0.0880	-1204.78
0.9016,0.0984	-1204.88
0.8029,0.1971	-1205.95
0.9113,0.0887	-1204.78
0.8485,0.1515	-1205.42
0.8688,0.1312	-1205.21
0.9144,0.0856	-1207.12
0.8976,0.1024	-1207.09
0.8368,0.1632	-1205.55
0.9105,0.0895	-1207.11
0.8437,0.1563	-1205.48
0.8842,0.1158	-1207.08
0.9252,0.0748	-1204.65
0.8990,0.1010	-1204.90
0.8127,0.1873	-1207.30
0.9010,0.0990	-1204.88
0.8716,0.1284	-1205.18
0.8855,0.1145	-1205.04
0.9242,0.0758	-1204.66
0.9122,0.0878	-1204.77
0.8419,0.1581	-1205.50
0.8808,0.1192	-1207.08
0.8711,0.1289	-1205.18
0.8994,0.1006	-1204.90
0.9223,0.0777	-1204.68
0.9246,0.0754	-1204.66
0.8538,0.1462	-1205.37
0.8551,0.1449	-1208.90
0.8809,0.1191	-1209.08
0.9213,0.0787	-1204.69
0.9288,0.0712	-1207.19
0.9219,0.0781	-1204.68
0.8691,0.1309	-1207.10
0.8585,0.1415	-1207.12
0.9040,0.0960	-1204.85
0.9050,0.0950	-1204.84
0.9204,0.0796	-1207.14
0.9156,0.0844	-1207.13
0.8525,0.1475	-1205.38
0.8612,0.1388	-1207.11
0.8978,0.1022	-1204.91
0.9223,0.0777	-1204.68
0.9161,0.0839	-1204.74
0.9293,0.0707	-1204.61
0.8615,0.1385	-1207.11
0.8521,0.1479	-1205.39
0.8977,0.1023	-1204.91
0.9203,0.0797	-1204.70
0.9030,0.0970	-1204.86
0.9214,0.0786	-1204.69
0.8390,0.1610	-1205.53
0.8321,0.1679	-1205.61
0.9094,0.0906	-1204.80
0.9353,0.0647	-1204.56
0.9219,0.0781	-1204.68
0.9302,0.0698	-1204.61
0.8559,0.1441	-1205.34
0.8277,0.1723	-1208.80
0.9108,0.0892	-1204.79
0.9257,0.0743	-1204.65
0.9418,0.0582	-1204.50
0.9194,0.0806	-1204.71
0.8667,0.1333	-1205.23
0.8467,0.1533	-1205.44
0.9047,0.0953	-1204.85
0.9392,0.0608	-1204.52
0.9472,0.0528	-1204.45
0.9337,0.0663	-1204.57
0.8678,0.1322	-1205.22
0.8126,0.1874	-1205.83
0.9041,0.0959	-1204.85
0.9353,0.0647	-1204.56
0.9478,0.0522	-1207.35
0.9339,0.0661	-1204.57
0.8945,0.1055	-1204.95
0.8142,0.1858	-1205.82
0.9075,0.0925	-1204.82
0.9156,0.0844	-1204.74
0.9361,0.0639	-1207.24
0.9393,0.0607	-1207.26
0.8977,0.1023	-1204.91
0.8236,0.1764	-1207.25
0.8967,0.1033	-1209.25
0.9104,0.0896	-1204.79
0.9532,0.0468	-1204.40
0.9467,0.0533	-1207.33
0.8973,0.1027	-1207.09
0.8279,0.1721	-1205.66
0.8880,0.1120	-1205.01
0.9200,0.0800	-1204.70
0.9599,0.0401	-1204.34
0.9537,0.0463	-1204.39
0.9049,0.0951	-1207.10
0.8341,0.1659	-1205.59
0.8856,0.1144	-1207.08
0.9189,0.0811	-1204.71
0.9544,0.0456	-1204.39
0.9511,0.0489	-1204.42
0.8867,0.1133	-1207.08
0.7781,0.2219	-1206.26
0.9064,0.0936	-1207.10
0.9179,0.0821	-1204.72
0.9520,0.0480	-1204.41
0.9424,0.0576	-1204.49
0.9047,0.0953	-1204.85
0.7593,0.2407	-1206.51
0.9227,0.0773	-1204.67
0.9014,0.0986	-1204.88
0.9650,0.0350	-1207.61
0.9506,0.0494	-1207.38
0.9012,0.0988	-1204.88
0.7568,0.2432	-1206.55
0.9180,0.0820	-1204.72
0.9198,0.0802	-1204.70
0.9713,0.0287	-1204.24
0.9403,0.0597	-1204.51
0.8981,0.1019	-1207.09
0.7561,0.2439	-1206.56
0.9300,0.0700	-1204.61
0.9179,0.0821	-1204.72
0.9692,0.0308	-1204.26
0.9276,0.0724	-1204.63
0.8854,0.1146	-1205.04
0.7564,0.2436	-1206.55
0.9371,0.0629	-1204.54
0.9023,0.0977	-1207.09
0.9708,0.0292	-1204.25
0.9321,0.0679	-1204.59
0.8564,0.1436	-1205.34
0.7645,0.2355	-1206.44
0.9414,0.0586	-1204.50
0.8868,0.1132	-1205.02
0.9680,0.0320	-1204.27
0.9343,0.0657	-1204.57
0.8597,0.1403	-1205.30
0.8059,0.1941	-1205.92
0.9440,0.0560	-1204.48
0.9056,0.0944	-1209.36
0.9684,0.0316	-1204.27
0.9294,0.0706	-1204.61
0.8589,0.1411	-1205.31
0.8040,0.1960	-1205.94
0.9521,0.0479	-1204.41
0.8987,0.1013	-1207.09
0.9574,0.0426	-1204.36
0.9181,0.0819	-1204.72
0.8523,0.1477	-1205.38
0.8102,0.1898	-1207.32
0.9578,0.0422	-1204.36
0.8972,0.1028	-1207.09
0.9628,0.0372	-1204.32
0.9278,0.0722	-1204.63
0.8151,0.1849	-1205.81
0.8736,0.1264	-1207.09
0.9585,0.0415	-1204.35
0.8953,0.1047	-1204.94
0.9542,0.0458	-1207.43
0.9392,0.0608	-1207.26
0.8345,0.1655	-1207.20
0.8905,0.1095	-1204.99
0.9536,0.0464	-1204.40
0.8950,0.1050	-1204.94
0.9580,0.0420	-1204.36
0.9338,0.0662	-1207.22
0.8464,0.1536	-1205.45
0.8520,0.1480	-1205.39
0.9558,0.0442	-1204.38
0.9051,0.0949	-1204.84
0.9547,0.0453	-1204.39
0.9506,0.0494	-1204.42
0.8599,0.1401	-1207.12
0.8575,0.1425	-1207.12
0.9592,0.0408	-1204.35
0.8909,0.1091	-1204.98
0.9567,0.0433	-1204.37
0.9446,0.0554	-1204.47
0.8748,0.1252	-1205.14
0.8119,0.1881	-1208.77
0.9673,0.0327	-1204.28
0.9003,0.0997	-1204.89
0.9571,0.0429	-1204.37
0.9398,0.0602	-1204.52
0.8846,0.1154	-1205.04
0.8354,0.1646	-1205.57
0.9624,0.0376	-1204.32
0.9142,0.0858	-1204.75
0.9657,0.0343	-1204.29
0.9470,0.0530	-1204.45
0.9037,0.0963	-1204.85
0.8583,0.1417	-1207.12
0.9611,0.0389	-1204.33
0.9069,0.0931	-1207.10
0.9677,0.0323	-1204.27
0.9455,0.0545	-1204.47
0.8923,0.1077	-1207.08
0.8738,0.1262	-1205.16
0.9593,0.0407	-1207.51
0.9051,0.0949	-1207.10
0.9727,0.0273	-1204.23
0.9492,0.0508	-1207.36
0.9126,0.0874	-1204.77
0.8915,0.1085	-1209.19
0.9541,0.0459	-1204.39
0.9061,0.0939	-1204.83
0.9699,0.0301	-1204.26
0.9508,0.0492	-1204.42
0.9105,0.0895	-1204.79
0.8847,0.1153	-1205.04
