#isoforms=['ENSG00000101294.SE.1.A.up_ENSG00000101294.SE.1.A.SE1_ENSG00000101294.SE.1.A.dn','ENSG00000101294.SE.1.B.up_ENSG00000101294.SE.1.B.dn']	exon_lens=('ENSG00000101294.SE.1.A.up',99),('ENSG00000101294.SE.1.A.SE1',376),('ENSG00000101294.SE.1.A.dn',89),('ENSG00000101294.SE.1.B.up',99),('ENSG00000101294.SE.1.B.dn',89)	iters=5000	burn_in=500	lag=10	percent_accept=89.84	proposal_type=drift	counts=(0,0):180,(1,0):88,(1,1):98	assigned_counts=0:124,1:62	chrom=chr20	strand=+	mRNA_starts=31527484,31527484	mRNA_ends=31545035,31545035
sampled_psi	log_score
0.3677,0.6323	-1209.15
0.4211,0.5789	-1211.40
0.4784,0.5216	-1213.22
0.5056,0.4944	-1214.89
0.4020,0.5980	-1210.35
0.3026,0.6974	-1206.85
0.3507,0.6493	-1204.97
0.4125,0.5875	-1214.44
0.4865,0.5135	-1214.25
0.5089,0.4911	-1214.87
0.3797,0.6203	-1212.64
0.3125,0.6875	-1204.17
0.3564,0.6436	-1209.80
0.4276,0.5724	-1211.54
0.5203,0.4797	-1215.33
0.4801,0.5199	-1213.10
0.4405,0.5595	-1212.85
0.2897,0.7103	-1202.94
0.3895,0.6105	-1214.26
0.3825,0.6175	-1208.75
0.4601,0.5399	-1214.22
0.4373,0.5627	-1210.79
0.3928,0.6072	-1210.24
0.3291,0.6709	-1208.37
0.4409,0.5591	-1210.72
0.3708,0.6292	-1209.16
0.4319,0.5681	-1213.57
0.4093,0.5907	-1211.95
0.3683,0.6317	-1210.77
0.2981,0.7019	-1202.75
0.4049,0.5951	-1210.79
0.3993,0.6007	-1209.09
0.4459,0.5541	-1214.24
0.4410,0.5590	-1211.44
0.3478,0.6522	-1207.44
0.3326,0.6674	-1210.38
0.3600,0.6400	-1208.03
0.4195,0.5805	-1212.35
0.4294,0.5706	-1213.01
0.4028,0.5972	-1209.97
0.3484,0.6516	-1213.70
0.3155,0.6845	-1205.69
0.4132,0.5868	-1212.32
0.3412,0.6588	-1214.72
0.4161,0.5839	-1210.63
0.4482,0.5518	-1212.15
0.3866,0.6134	-1206.51
0.3431,0.6569	-1209.41
0.3681,0.6319	-1209.15
0.3728,0.6272	-1207.60
0.3876,0.6124	-1212.49
0.4302,0.5698	-1211.32
0.3818,0.6182	-1211.63
0.3528,0.6472	-1209.86
0.3608,0.6392	-1203.46
0.4249,0.5751	-1210.27
0.3568,0.6432	-1208.62
0.4239,0.5761	-1213.91
0.3937,0.6063	-1211.11
0.2939,0.7061	-1205.46
0.3596,0.6404	-1209.76
0.4049,0.5951	-1210.79
0.3667,0.6333	-1207.52
0.4458,0.5542	-1212.50
0.3888,0.6112	-1209.76
0.3717,0.6283	-1211.78
0.4212,0.5788	-1214.26
0.4644,0.5356	-1213.94
0.3298,0.6702	-1209.06
0.4434,0.5566	-1213.12
0.4042,0.5958	-1206.51
0.3839,0.6161	-1210.66
0.4308,0.5692	-1210.78
0.4439,0.5561	-1212.91
0.3370,0.6630	-1199.41
0.4190,0.5810	-1210.38
0.3918,0.6082	-1211.11
0.3571,0.6429	-1210.97
0.4570,0.5430	-1213.87
0.3747,0.6253	-1208.14
0.3199,0.6801	-1207.88
0.4693,0.5307	-1213.89
0.3871,0.6129	-1212.04
0.3559,0.6441	-1207.44
0.4554,0.5446	-1211.53
0.3591,0.6409	-1206.87
0.3505,0.6495	-1201.88
0.4597,0.5403	-1212.44
0.4160,0.5840	-1210.63
0.3819,0.6181	-1208.26
0.4483,0.5517	-1214.44
0.3621,0.6379	-1209.74
0.3632,0.6368	-1208.60
0.4573,0.5427	-1213.53
0.4541,0.5459	-1213.66
0.3501,0.6499	-1208.67
0.4128,0.5872	-1213.73
0.3885,0.6115	-1212.02
0.3731,0.6269	-1211.76
0.4809,0.5191	-1214.31
0.4321,0.5679	-1210.83
0.3186,0.6814	-1202.59
0.3311,0.6689	-1204.80
0.4332,0.5668	-1212.76
0.3906,0.6094	-1211.11
0.5334,0.4666	-1215.56
0.4439,0.5561	-1211.55
0.3057,0.6943	-1205.10
0.3679,0.6321	-1211.86
0.4438,0.5562	-1211.10
0.3883,0.6117	-1208.39
0.4835,0.5165	-1214.68
0.4364,0.5636	-1213.82
0.2955,0.7045	-1205.41
0.3548,0.6452	-1211.02
0.4495,0.5505	-1211.99
0.4108,0.5892	-1211.60
0.4909,0.5091	-1214.47
0.3891,0.6109	-1213.37
0.3591,0.6409	-1209.19
0.3375,0.6625	-1211.57
0.4373,0.5627	-1212.30
0.3495,0.6505	-1198.74
0.5086,0.4914	-1214.80
0.3983,0.6017	-1208.65
0.3202,0.6798	-1200.34
0.3449,0.6551	-1207.45
0.4417,0.5583	-1211.46
0.3341,0.6659	-1204.12
0.4885,0.5115	-1214.00
0.4676,0.5324	-1213.60
0.3387,0.6613	-1209.51
0.3316,0.6684	-1202.70
0.4309,0.5691	-1213.01
0.3523,0.6477	-1214.13
0.4957,0.5043	-1214.56
0.4186,0.5814	-1210.04
0.3969,0.6031	-1211.12
0.3276,0.6724	-1212.00
0.3963,0.6037	-1210.70
0.3019,0.6981	-1209.40
0.5045,0.4955	-1214.98
0.3924,0.6076	-1209.36
0.3564,0.6436	-1209.80
0.3002,0.6998	-1212.03
0.3672,0.6328	-1205.35
0.2854,0.7146	-1195.72
0.4998,0.5002	-1214.74
0.3763,0.6237	-1207.66
0.3885,0.6115	-1208.39
0.3294,0.6706	-1204.81
0.3751,0.6249	-1213.76
0.2981,0.7019	-1212.17
0.5526,0.4474	-1214.59
0.3876,0.6124	-1213.86
0.3604,0.6396	-1205.74
0.3433,0.6567	-1208.11
0.3489,0.6511	-1206.81
0.3623,0.6377	-1207.47
0.5111,0.4889	-1214.95
0.3605,0.6395	-1210.33
0.3794,0.6206	-1209.69
0.3561,0.6439	-1208.03
0.3364,0.6636	-1203.46
0.4074,0.5926	-1210.07
0.5172,0.4828	-1215.09
0.3834,0.6166	-1207.34
0.3480,0.6520	-1209.95
0.3582,0.6418	-1207.45
0.3756,0.6244	-1205.11
0.4033,0.5967	-1211.16
0.4784,0.5216	-1214.09
0.3970,0.6030	-1209.87
0.3327,0.6673	-1206.89
0.3607,0.6393	-1206.32
0.3433,0.6567	-1206.82
0.3582,0.6418	-1210.36
0.4116,0.5884	-1210.17
0.4394,0.5606	-1214.54
0.3317,0.6683	-1212.51
0.3921,0.6079	-1210.67
0.4197,0.5803	-1212.99
0.3791,0.6209	-1207.22
0.4148,0.5852	-1209.23
0.4357,0.5643	-1211.75
0.3322,0.6678	-1209.69
0.4217,0.5783	-1212.68
0.4691,0.5309	-1214.38
0.4053,0.5947	-1213.09
0.3758,0.6242	-1213.74
0.4200,0.5800	-1211.06
0.3146,0.6854	-1201.04
0.3882,0.6118	-1208.84
0.3997,0.6003	-1212.76
0.4418,0.5582	-1212.64
0.3393,0.6607	-1207.50
0.4520,0.5480	-1213.06
0.3043,0.6957	-1202.66
0.4217,0.5783	-1212.99
0.4577,0.5423	-1212.68
0.4509,0.5491	-1212.45
0.3782,0.6218	-1206.70
0.3846,0.6154	-1210.19
0.3601,0.6399	-1214.36
0.3482,0.6518	-1211.20
0.5013,0.4987	-1214.79
0.4726,0.5274	-1213.63
0.3708,0.6292	-1204.40
0.3901,0.6099	-1207.54
0.3602,0.6398	-1210.90
0.3939,0.6061	-1207.66
0.4303,0.5697	-1209.92
0.4575,0.5425	-1213.53
0.3221,0.6779	-1207.07
0.4601,0.5399	-1213.42
0.3478,0.6522	-1207.44
0.3480,0.6520	-1208.69
0.4227,0.5773	-1208.01
0.4568,0.5432	-1212.65
0.3270,0.6730	-1209.87
0.4212,0.5788	-1212.04
0.3633,0.6367	-1211.41
0.3223,0.6777	-1209.30
0.4559,0.5441	-1214.03
0.4872,0.5128	-1214.33
0.3445,0.6555	-1210.03
0.4015,0.5985	-1211.94
0.3667,0.6333	-1209.16
0.3210,0.6790	-1206.35
0.4645,0.5355	-1213.81
0.4755,0.5245	-1213.43
0.3863,0.6137	-1213.90
0.4055,0.5945	-1211.18
0.3718,0.6282	-1208.63
0.3031,0.6969	-1208.50
0.5118,0.4882	-1215.01
0.4204,0.5796	-1212.67
0.2965,0.7035	-1206.24
0.4031,0.5969	-1209.59
0.3715,0.6285	-1212.84
0.2693,0.7307	-1193.76
0.4707,0.5293	-1214.15
0.4259,0.5741	-1215.38
0.3115,0.6885	-1207.36
0.4447,0.5553	-1213.36
0.3534,0.6466	-1209.24
0.3148,0.6852	-1211.93
0.4671,0.5329	-1214.25
0.4602,0.5398	-1214.38
0.3133,0.6867	-1205.73
0.3758,0.6242	-1207.14
0.3387,0.6613	-1204.83
0.3121,0.6879	-1205.76
0.4472,0.5528	-1212.54
0.4556,0.5444	-1212.07
0.3069,0.6931	-1208.34
0.4317,0.5683	-1212.19
0.2918,0.7082	-1205.55
0.3749,0.6251	-1209.68
0.4463,0.5537	-1211.44
0.3855,0.6145	-1212.06
0.3095,0.6905	-1204.22
0.4333,0.5667	-1212.49
0.3077,0.6923	-1210.73
0.4067,0.5933	-1209.68
0.4546,0.5454	-1213.85
0.3718,0.6282	-1209.68
0.3303,0.6697	-1206.22
0.4946,0.5054	-1214.45
0.3426,0.6574	-1205.51
0.3445,0.6555	-1208.10
0.4787,0.5213	-1214.18
0.4086,0.5914	-1214.17
0.4178,0.5822	-1213.00
0.4475,0.5525	-1214.02
0.3557,0.6443	-1203.28
0.3170,0.6830	-1207.96
0.4903,0.5097	-1214.42
0.4358,0.5642	-1212.27
0.4615,0.5385	-1214.68
0.4063,0.5937	-1213.84
0.3438,0.6562	-1210.69
0.2996,0.7004	-1204.42
0.4986,0.5014	-1214.70
0.4189,0.5811	-1211.36
0.4179,0.5821	-1211.67
0.4252,0.5748	-1212.39
0.3313,0.6687	-1205.51
0.3050,0.6950	-1204.30
0.4745,0.5255	-1214.41
0.4329,0.5671	-1211.67
0.4062,0.5938	-1209.66
0.4095,0.5905	-1212.68
0.3171,0.6829	-1207.96
0.3221,0.6779	-1208.56
0.4966,0.5034	-1214.53
0.4546,0.5454	-1212.03
0.3343,0.6657	-1202.05
0.4258,0.5742	-1214.19
0.2848,0.7152	-1204.01
0.3330,0.6670	-1208.97
0.4374,0.5626	-1213.06
0.4540,0.5460	-1213.66
0.3250,0.6750	-1205.55
0.4056,0.5944	-1211.94
0.2830,0.7170	-1203.15
0.3355,0.6645	-1213.01
0.4027,0.5973	-1211.55
0.4626,0.5374	-1211.97
0.3397,0.6603	-1208.16
0.3568,0.6432	-1205.08
0.3039,0.6961	-1205.15
0.3540,0.6460	-1206.23
0.3766,0.6234	-1206.66
0.4986,0.5014	-1214.72
0.3291,0.6709	-1209.08
0.3356,0.6644	-1213.69
0.3605,0.6395	-1209.75
0.3019,0.6981	-1211.07
0.3866,0.6134	-1209.74
0.4219,0.5781	-1211.42
0.3699,0.6301	-1210.75
0.3454,0.6546	-1208.09
0.3462,0.6538	-1207.45
0.3493,0.6507	-1208.06
0.4207,0.5793	-1213.63
0.4116,0.5884	-1211.60
0.3665,0.6335	-1210.80
0.3631,0.6369	-1209.17
0.3531,0.6469	-1208.64
0.3698,0.6302	-1210.75
0.3647,0.6353	-1204.16
0.4092,0.5908	-1211.95
0.4047,0.5953	-1212.33
0.3580,0.6420	-1206.86
0.3984,0.6016	-1208.65
0.4113,0.5887	-1209.09
0.3867,0.6133	-1207.89
0.3621,0.6379	-1208.60
0.4382,0.5618	-1213.56
0.3862,0.6138	-1212.05
0.3616,0.6384	-1212.02
0.4132,0.5868	-1209.16
0.3587,0.6413	-1207.45
0.3534,0.6466	-1205.02
0.4174,0.5826	-1211.67
0.3786,0.6214	-1215.64
0.3712,0.6288	-1208.10
0.4161,0.5839	-1211.31
0.3026,0.6974	-1211.03
0.3714,0.6286	-1209.68
0.3864,0.6136	-1209.73
0.4260,0.5740	-1210.91
0.3150,0.6850	-1203.37
0.4565,0.5435	-1213.86
0.3374,0.6626	-1204.15
0.4489,0.5511	-1213.61
0.4181,0.5819	-1210.02
0.4497,0.5503	-1213.01
0.2909,0.7091	-1208.25
0.4502,0.5498	-1212.62
0.3742,0.6258	-1206.08
0.4825,0.5175	-1214.41
0.3778,0.6222	-1209.19
0.5034,0.4966	-1214.81
0.3179,0.6821	-1203.36
0.4624,0.5376	-1213.92
0.3417,0.6583	-1206.82
0.5333,0.4667	-1216.09
0.3956,0.6044	-1210.69
0.4679,0.5321	-1213.48
0.2957,0.7043	-1202.80
0.4277,0.5723	-1211.25
0.3138,0.6862	-1208.07
0.5367,0.4633	-1215.38
0.4567,0.5433	-1212.48
0.4452,0.5548	-1214.03
0.3254,0.6746	-1211.38
0.4093,0.5907	-1212.32
0.2820,0.7180	-1205.99
0.5684,0.4316	-1217.84
0.4059,0.5941	-1208.90
0.4494,0.5506	-1214.02
0.3091,0.6909	-1205.03
0.3766,0.6234	-1208.17
0.2797,0.7203	-1206.11
0.5920,0.4080	-1215.72
0.3837,0.6163	-1210.66
0.4556,0.5444	-1212.07
0.3095,0.6905	-1204.22
0.3860,0.6140	-1210.66
0.2939,0.7061	-1200.21
0.5577,0.4423	-1216.73
0.3404,0.6596	-1208.81
0.4819,0.5181	-1213.82
0.3685,0.6315	-1212.93
0.3615,0.6385	-1209.17
0.2838,0.7162	-1209.60
0.5095,0.4905	-1214.84
0.3698,0.6302	-1209.16
0.4662,0.5338	-1214.10
0.3710,0.6290	-1207.57
0.3752,0.6248	-1211.21
0.3203,0.6797	-1207.11
0.5489,0.4511	-1215.54
0.4326,0.5674	-1210.04
0.4429,0.5571	-1216.10
0.3749,0.6251	-1210.19
0.3452,0.6548	-1206.81
0.3389,0.6611	-1208.84
0.5097,0.4903	-1214.81
0.4395,0.5605	-1212.11
0.4478,0.5522	-1210.46
0.3339,0.6661	-1204.81
0.3480,0.6520	-1207.44
0.3760,0.6240	-1214.24
0.4254,0.5746	-1212.69
0.4115,0.5885	-1213.39
0.4367,0.5633	-1213.56
0.4018,0.5982	-1210.75
0.3322,0.6678	-1209.69
0.3569,0.6431	-1209.21
0.4020,0.5980	-1212.74
0.3715,0.6285	-1208.63
0.4049,0.5951	-1208.47
0.4016,0.5984	-1209.95
0.3575,0.6425	-1213.89
0.3168,0.6832	-1209.51
0.3580,0.6420	-1210.95
0.3767,0.6233	-1205.15
0.3919,0.6081	-1212.43
0.4022,0.5978	-1209.17
0.3393,0.6607	-1204.83
0.3351,0.6649	-1207.55
0.3324,0.6676	-1206.20
0.4308,0.5692	-1212.45
0.3810,0.6190	-1211.64
0.3738,0.6262	-1205.55
0.3334,0.6666	-1211.74
0.3964,0.6036	-1209.86
0.3117,0.6883	-1204.98
0.4114,0.5886	-1213.39
0.3737,0.6263	-1208.65
0.3796,0.6204	-1212.64
0.3874,0.6126	-1208.37
0.4379,0.5621	-1211.07
0.2979,0.7021	-1207.04
0.4304,0.5696	-1212.73
0.3788,0.6212	-1212.66
0.4044,0.5956	-1213.10
0.3545,0.6455	-1209.83
0.4310,0.5690	-1213.29
0.2967,0.7033	-1207.09
0.4065,0.5935	-1209.29
0.4407,0.5593	-1213.33
0.3693,0.6307	-1212.90
0.3593,0.6407	-1207.45
0.3697,0.6303	-1208.09
0.3083,0.6917	-1208.28
0.3736,0.6264	-1211.75
0.4937,0.5063	-1214.73
0.3731,0.6269	-1211.76
0.3643,0.6357	-1210.83
0.3455,0.6545	-1206.17
0.3324,0.6676	-1200.62
0.3609,0.6391	-1210.89
0.5269,0.4731	-1215.68
0.3574,0.6426	-1210.38
0.3800,0.6200	-1205.29
0.3893,0.6107	-1213.81
0.3170,0.6830	-1211.04
0.3394,0.6606	-1209.50
0.5509,0.4491	-1216.21
0.3925,0.6075	-1205.43
0.3732,0.6268	-1211.76
0.3879,0.6121	-1208.84
0.3176,0.6824	-1203.36
0.3821,0.6179	-1212.59
0.5084,0.4916	-1214.79
0.3716,0.6284	-1209.16
0.4737,0.5263	-1213.98
0.3568,0.6432	-1210.39
0.3652,0.6348	-1211.37
0.3940,0.6060	-1207.24
0.4539,0.5461	-1213.66
0.4019,0.5981	-1209.56
0.4268,0.5732	-1211.23
0.3462,0.6538	-1204.27
0.3811,0.6189	-1209.21
0.4575,0.5425	-1214.21
0.4547,0.5453	-1212.94
0.3560,0.6440	-1208.03
0.4441,0.5559	-1213.81
0.3237,0.6763	-1208.51
0.4045,0.5955	-1208.85
0.4780,0.5220	-1213.64
0.4092,0.5908	-1209.38
0.3527,0.6473	-1209.25
0.4486,0.5514	-1213.61
0.3394,0.6606	-1208.83
0.3751,0.6249	-1208.66
0.5135,0.4865	-1215.60
0.4821,0.5179	-1214.40
0.3701,0.6299	-1213.94
0.4413,0.5587	-1210.97
0.3462,0.6538	-1206.81
0.3695,0.6305	-1209.15
0.5557,0.4443	-1216.41
0.4828,0.5172	-1214.55
0.3883,0.6117	-1203.84
0.4499,0.5501	-1213.02
0.3358,0.6642	-1206.18
0.3222,0.6778	-1207.07
0.4715,0.5285	-1212.79
0.5273,0.4727	-1216.57
0.3648,0.6352	-1214.15
0.4507,0.5493	-1210.66
0.3267,0.6733	-1206.98
0.3369,0.6631	-1202.11
0.4346,0.5654	-1209.61
0.5090,0.4910	-1214.83
0.4133,0.5867	-1208.82
0.3865,0.6135	-1209.27
0.2937,0.7063	-1203.72
0.3475,0.6525	-1213.74
0.3844,0.6156	-1210.19
0.4622,0.5378	-1213.46
0.4291,0.5709	-1213.00
0.3546,0.6454	-1214.62
0.3139,0.6861	-1209.63
0.3527,0.6473	-1200.15
0.4127,0.5873	-1211.61
0.4630,0.5370	-1213.93
0.4077,0.5923	-1208.96
0.3615,0.6385	-1210.31
0.3488,0.6512	-1206.81
0.3765,0.6235	-1211.70
0.3655,0.6345	-1209.71
0.4586,0.5414	-1216.04
0.3893,0.6107	-1210.66
0.3803,0.6197	-1209.69
0.3238,0.6762	-1200.41
0.3776,0.6224	-1207.69
0.3439,0.6561	-1207.46
0.4478,0.5522	-1212.56
0.4040,0.5960	-1208.44
0.3801,0.6199	-1207.74
0.3819,0.6181	-1213.07
0.4000,0.6000	-1212.76
0.3471,0.6529	-1204.28
0.4030,0.5970	-1210.76
0.4142,0.5858	-1210.24
0.3751,0.6249	-1214.79
0.4264,0.5736	-1210.62
0.3785,0.6215	-1208.20
0.3371,0.6629	-1206.17
0.3782,0.6218	-1209.19
0.4540,0.5460	-1212.37
0.3331,0.6669	-1208.97
0.3539,0.6461	-1211.65
0.4341,0.5659	-1211.71
0.4021,0.5979	-1212.34
0.4022,0.5978	-1207.98
0.4479,0.5521	-1212.35
0.3904,0.6096	-1209.78
0.3511,0.6489	-1204.36
0.4291,0.5709	-1212.72
0.3595,0.6405	-1208.03
0.3827,0.6173	-1213.53
0.3973,0.6027	-1212.79
0.4201,0.5799	-1208.48
0.3788,0.6212	-1210.68
0.4678,0.5322	-1213.86
0.3336,0.6664	-1210.34
0.3769,0.6231	-1212.70
0.3783,0.6217	-1210.18
0.3562,0.6438	-1200.33
0.3416,0.6584	-1208.13
0.4960,0.5040	-1214.60
0.3933,0.6067	-1209.81
0.3528,0.6472	-1209.86
0.4190,0.5810	-1209.73
0.3911,0.6089	-1210.67
0.3490,0.6510	-1206.81
0.5011,0.4989	-1214.77
0.3608,0.6392	-1212.61
0.4051,0.5949	-1209.25
0.3885,0.6115	-1211.12
0.3721,0.6279	-1208.64
0.3232,0.6768	-1205.57
0.4683,0.5317	-1212.85
0.3253,0.6747	-1204.82
0.4048,0.5952	-1211.17
0.4064,0.5936	-1213.08
0.4237,0.5763	-1212.07
0.3072,0.6928	-1206.70
0.3670,0.6330	-1210.25
0.2983,0.7017	-1205.31
0.3768,0.6232	-1209.18
0.3923,0.6077	-1211.55
0.4094,0.5906	-1211.95
0.3486,0.6514	-1211.81
0.3341,0.6659	-1206.88
0.3170,0.6830	-1211.04
0.3771,0.6229	-1214.20
0.3832,0.6168	-1209.23
0.4450,0.5550	-1212.70
0.3809,0.6191	-1214.55
0.3637,0.6363	-1210.28
0.3325,0.6675	-1204.81
0.3131,0.6869	-1208.10
0.3352,0.6648	-1214.40
0.4675,0.5325	-1214.12
0.3729,0.6271	-1212.80
0.3310,0.6690	-1206.21
0.3236,0.6764	-1203.36
0.3296,0.6704	-1208.35
0.3806,0.6194	-1207.75
0.4809,0.5191	-1214.46
0.3703,0.6297	-1215.00
0.3082,0.6918	-1209.90
0.3024,0.6976	-1207.70
0.3344,0.6656	-1200.68
0.3656,0.6344	-1209.16
0.5166,0.4834	-1214.22
0.4388,0.5612	-1211.60
0.3555,0.6445	-1209.82
0.3437,0.6563	-1203.58
0.3602,0.6398	-1209.18
0.3345,0.6655	-1207.56
0.4794,0.5206	-1214.20
0.3627,0.6373	-1206.91
0.3987,0.6013	-1212.77
0.3764,0.6236	-1209.68
0.4298,0.5702	-1210.75
0.4075,0.5925	-1210.45
0.4884,0.5116	-1214.18
0.3668,0.6332	-1206.43
0.3972,0.6028	-1206.95
0.3613,0.6387	-1206.33
0.4709,0.5291	-1214.16
0.4009,0.5991	-1214.76
0.4621,0.5379	-1214.37
0.3262,0.6738	-1209.17
0.3862,0.6138	-1209.73
0.3498,0.6502	-1210.53
0.5571,0.4429	-1216.25
0.4409,0.5591	-1212.38
0.4576,0.5424	-1212.68
0.3970,0.6030	-1210.28
0.4131,0.5869	-1209.86
0.3571,0.6429	-1213.91
0.5330,0.4670	-1214.75
0.4192,0.5808	-1212.67
0.4281,0.5719	-1210.11
0.4003,0.5997	-1208.71
0.3974,0.6026	-1209.87
0.4124,0.5876	-1209.84
0.4893,0.5107	-1214.52
0.4446,0.5554	-1212.69
0.5093,0.4907	-1215.13
0.3664,0.6336	-1208.61
0.4085,0.5915	-1210.47
0.3479,0.6521	-1202.41
0.5041,0.4959	-1214.76
0.4568,0.5432	-1213.35
0.4577,0.5423	-1214.04
0.3687,0.6313	-1210.23
0.4818,0.5182	-1213.96
0.3602,0.6398	-1209.76
0.5430,0.4570	-1215.21
0.4697,0.5303	-1213.66
0.4460,0.5540	-1214.03
0.3584,0.6416	-1209.20
0.4800,0.5200	-1214.37
0.3880,0.6120	-1211.12
0.5535,0.4465	-1216.10
0.4363,0.5637	-1211.51
0.4416,0.5584	-1212.16
0.3806,0.6194	-1209.21
0.5109,0.4891	-1214.90
0.4302,0.5698	-1211.88
0.5055,0.4945	-1214.73
0.4335,0.5665	-1214.90
0.4514,0.5486	-1213.83
0.3892,0.6108	-1212.47
0.4948,0.5052	-1214.77
0.4178,0.5822	-1213.33
0.5191,0.4809	-1214.68
0.4386,0.5614	-1212.33
0.3833,0.6167	-1211.14
0.4270,0.5730	-1212.11
0.5712,0.4288	-1214.28
0.4171,0.5829	-1211.66
0.4982,0.5018	-1214.65
0.4566,0.5434	-1214.21
0.3387,0.6613	-1211.52
0.4260,0.5740	-1209.71
0.4814,0.5186	-1214.17
0.4339,0.5661	-1211.70
0.4649,0.5351	-1213.25
0.4627,0.5373	-1213.18
0.3352,0.6648	-1205.50
0.4070,0.5930	-1213.07
0.4720,0.5280	-1213.50
0.4161,0.5839	-1213.35
0.4096,0.5904	-1208.30
0.3974,0.6026	-1212.37
0.3490,0.6510	-1211.18
0.4102,0.5898	-1211.23
0.4332,0.5668	-1211.14
0.3908,0.6092	-1211.56
0.4250,0.5750	-1209.67
0.3939,0.6061	-1208.53
0.3168,0.6832	-1207.97
0.4290,0.5710	-1213.86
0.4324,0.5676	-1213.02
0.3891,0.6109	-1208.86
0.4555,0.5445	-1213.68
0.3857,0.6143	-1209.26
0.3283,0.6717	-1206.24
0.4028,0.5972	-1208.79
0.4343,0.5657	-1212.50
0.3919,0.6081	-1210.67
0.4246,0.5754	-1211.17
0.3285,0.6715	-1201.23
0.3618,0.6382	-1206.90
0.4078,0.5922	-1211.20
0.4267,0.5733	-1211.52
0.3667,0.6333	-1211.89
0.3811,0.6189	-1210.67
0.3566,0.6434	-1205.67
0.3587,0.6413	-1212.68
0.4349,0.5651	-1213.82
0.4167,0.5833	-1206.27
0.3386,0.6614	-1210.19
0.4069,0.5931	-1210.06
0.3892,0.6108	-1207.06
0.3517,0.6483	-1209.88
0.4409,0.5591	-1212.86
0.4118,0.5882	-1211.96
0.3382,0.6618	-1207.51
0.4449,0.5551	-1212.48
0.3466,0.6534	-1206.81
0.3076,0.6924	-1209.93
0.4280,0.5720	-1210.39
0.4147,0.5853	-1212.32
0.3547,0.6453	-1204.44
0.3792,0.6208	-1208.21
0.3302,0.6698	-1203.39
0.3435,0.6565	-1208.76
0.4105,0.5895	-1210.51
0.4395,0.5605	-1210.89
0.3375,0.6625	-1210.22
0.3559,0.6441	-1206.84
0.3127,0.6873	-1205.75
0.3407,0.6593	-1203.52
0.4997,0.5003	-1214.74
0.4302,0.5698	-1210.76
0.3191,0.6809	-1213.97
0.3057,0.6943	-1204.28
0.3426,0.6574	-1215.94
0.3481,0.6519	-1203.67
0.5381,0.4619	-1215.11
0.3605,0.6395	-1206.31
0.3293,0.6707	-1211.92
0.2917,0.7083	-1195.79
0.3019,0.6981	-1206.88
0.3140,0.6860	-1210.41
0.5275,0.4725	-1215.92
0.3902,0.6098	-1208.43
0.3498,0.6502	-1209.91
0.3331,0.6669	-1205.50
0.2917,0.7083	-1202.89
0.3328,0.6672	-1204.11
0.5109,0.4891	-1215.08
0.3334,0.6666	-1212.43
0.3763,0.6237	-1210.69
0.3395,0.6605	-1206.17
0.3069,0.6931	-1205.08
0.3376,0.6624	-1208.87
0.4581,0.5419	-1213.71
0.3127,0.6873	-1204.96
0.3960,0.6040	-1209.01
0.3347,0.6653	-1206.18
0.2975,0.7025	-1200.18
0.3632,0.6368	-1211.41
0.5126,0.4874	-1215.09
0.3252,0.6748	-1206.28
0.3877,0.6123	-1209.75
0.3253,0.6747	-1202.63
0.3629,0.6371	-1206.92
0.3669,0.6331	-1206.97
0.5551,0.4449	-1217.05
0.3529,0.6471	-1209.25
0.4238,0.5762	-1209.92
0.3167,0.6833	-1214.13
0.3657,0.6343	-1211.91
0.3632,0.6368	-1206.92
0.4871,0.5129	-1214.94
0.3578,0.6422	-1205.69
0.4361,0.5639	-1215.87
0.3556,0.6444	-1211.60
0.3820,0.6180	-1210.66
0.3565,0.6435	-1208.03
0.4834,0.5166	-1214.49
0.3764,0.6236	-1207.66
0.4123,0.5877	-1210.55
0.3530,0.6470	-1209.25
0.2828,0.7172	-1204.09
0.3725,0.6275	-1211.25
0.4744,0.5256	-1214.00
0.3785,0.6215	-1212.17
0.4148,0.5852	-1210.26
0.3419,0.6581	-1210.09
0.3193,0.6807	-1210.17
0.3788,0.6212	-1206.72
0.4793,0.5207	-1214.78
0.3733,0.6267	-1209.68
0.4085,0.5915	-1210.84
0.3664,0.6336	-1206.42
0.3211,0.6789	-1207.10
0.3651,0.6349	-1210.82
0.4730,0.5270	-1213.86
0.4533,0.5467	-1212.90
0.3982,0.6018	-1210.71
0.4130,0.5870	-1211.62
0.3636,0.6364	-1205.25
0.3848,0.6152	-1207.84
0.4861,0.5139	-1214.68
0.4706,0.5294	-1213.33
0.3129,0.6871	-1204.17
0.3904,0.6096	-1209.33
0.3729,0.6271	-1208.12
0.3601,0.6399	-1209.18
0.4900,0.5100	-1214.45
0.4363,0.5637	-1212.28
0.3479,0.6521	-1209.32
0.3517,0.6483	-1206.82
0.3711,0.6289	-1211.27
0.3906,0.6094	-1212.00
0.4694,0.5306	-1213.89
0.4221,0.5779	-1214.56
0.3714,0.6286	-1207.58
0.3375,0.6625	-1204.82
