#isoforms=['ENSG00000101294.SE.1.A.up_ENSG00000101294.SE.1.A.SE1_ENSG00000101294.SE.1.A.dn','ENSG00000101294.SE.1.B.up_ENSG00000101294.SE.1.B.dn']	exon_lens=('ENSG00000101294.SE.1.A.up',99),('ENSG00000101294.SE.1.A.SE1',376),('ENSG00000101294.SE.1.A.dn',89),('ENSG00000101294.SE.1.B.up',99),('ENSG00000101294.SE.1.B.dn',89)	iters=5000	burn_in=500	lag=10	percent_accept=79.87	proposal_type=drift	counts=(0,0):642,(1,0):231,(1,1):443	assigned_counts=0:315,1:359	chrom=chr20	strand=+	mRNA_starts=31527484,31527484	mRNA_ends=31545035,31545035
sampled_psi	log_score
0.1781,0.8219	-4213.86
0.2188,0.7812	-4254.47
0.2076,0.7924	-4220.89
0.2382,0.7618	-4276.02
0.2230,0.7770	-4243.45
0.2057,0.7943	-4242.28
0.2174,0.7826	-4235.20
0.2251,0.7749	-4256.07
0.1923,0.8077	-4232.60
0.2437,0.7563	-4272.96
0.1991,0.8009	-4240.92
0.2259,0.7741	-4253.67
0.2340,0.7660	-4271.13
0.2357,0.7643	-4262.98
0.2015,0.7985	-4242.27
0.2232,0.7768	-4227.26
0.1939,0.8061	-4252.51
0.2057,0.7943	-4224.72
0.2379,0.7621	-4258.55
0.2590,0.7410	-4276.97
0.2098,0.7902	-4238.43
0.1991,0.8009	-4252.06
0.2031,0.7969	-4243.63
0.1905,0.8095	-4221.09
0.2120,0.7880	-4247.77
0.2569,0.7431	-4292.60
0.2023,0.7977	-4229.92
0.2092,0.7908	-4247.70
0.1995,0.8005	-4225.63
0.2018,0.7982	-4261.51
0.1915,0.8085	-4234.06
0.2368,0.7632	-4277.14
0.1804,0.8196	-4247.07
0.1990,0.8010	-4231.17
0.1937,0.8063	-4249.68
0.1999,0.8001	-4229.81
0.1830,0.8170	-4225.69
0.2468,0.7532	-4264.34
0.2208,0.7792	-4253.30
0.1718,0.8282	-4219.04
0.2090,0.7910	-4249.03
0.2002,0.7998	-4222.90
0.1693,0.8307	-4230.51
0.2170,0.7830	-4255.69
0.2374,0.7626	-4267.82
0.1974,0.8026	-4239.56
0.2053,0.7947	-4251.75
0.2082,0.7918	-4258.38
0.1840,0.8160	-4239.04
0.2249,0.7751	-4259.77
0.2165,0.7835	-4276.26
0.2110,0.7890	-4255.65
0.2000,0.8000	-4224.27
0.2277,0.7723	-4277.04
0.2072,0.7928	-4236.95
0.2369,0.7631	-4265.44
0.2036,0.7964	-4253.17
0.2143,0.7857	-4242.66
0.1934,0.8066	-4243.99
0.2270,0.7730	-4263.57
0.2266,0.7734	-4261.10
0.2204,0.7796	-4246.97
0.2367,0.7633	-4267.76
0.2247,0.7753	-4257.29
0.2078,0.7922	-4228.95
0.2123,0.7877	-4260.88
0.1886,0.8114	-4219.62
0.2207,0.7793	-4241.94
0.2610,0.7390	-4287.67
0.2343,0.7657	-4278.25
0.2207,0.7793	-4265.91
0.2186,0.7814	-4279.94
0.2127,0.7873	-4249.10
0.2084,0.7916	-4246.36
0.2350,0.7650	-4260.55
0.2442,0.7558	-4275.26
0.2179,0.7821	-4260.83
0.2236,0.7764	-4253.49
0.2170,0.7830	-4253.13
0.2167,0.7833	-4244.12
0.2250,0.7750	-4270.91
0.2328,0.7672	-4273.46
0.2181,0.7819	-4267.21
0.2241,0.7759	-4253.53
0.2005,0.7995	-4264.41
0.2306,0.7694	-4258.95
0.1874,0.8126	-4231.35
0.2330,0.7670	-4280.61
0.2127,0.7873	-4246.48
0.2092,0.7908	-4251.69
0.2162,0.7838	-4250.52
0.2419,0.7581	-4273.94
0.1875,0.8125	-4253.34
0.2151,0.7849	-4256.95
0.2183,0.7817	-4251.90
0.2220,0.7780	-4255.89
0.1932,0.8068	-4229.72
0.2257,0.7743	-4253.65
0.1940,0.8060	-4245.38
0.2394,0.7606	-4255.28
0.2343,0.7657	-4259.30
0.2143,0.7857	-4280.33
0.2036,0.7964	-4259.99
0.2113,0.7887	-4254.33
0.1977,0.8023	-4253.56
0.2393,0.7607	-4242.54
0.2186,0.7814	-4269.75
0.2131,0.7869	-4258.25
0.1809,0.8191	-4237.92
0.2077,0.7923	-4250.36
0.2226,0.7774	-4264.67
0.2186,0.7814	-4250.64
0.1951,0.8049	-4228.30
0.1992,0.8008	-4232.57
0.2146,0.7854	-4258.24
0.2027,0.7973	-4231.31
0.2258,0.7742	-4251.19
0.1929,0.8071	-4252.62
0.2139,0.7861	-4238.72
0.2028,0.7972	-4214.89
0.2237,0.7763	-4251.01
0.2116,0.7884	-4245.12
0.2180,0.7820	-4246.77
0.1989,0.8011	-4256.25
0.2023,0.7977	-4251.87
0.2182,0.7818	-4257.00
0.1844,0.8156	-4238.99
0.1967,0.8033	-4238.17
0.2153,0.7847	-4260.83
0.2132,0.7868	-4247.81
0.1834,0.8166	-4230.15
0.2277,0.7723	-4279.48
0.1884,0.8116	-4240.06
0.2040,0.7960	-4255.88
0.2096,0.7904	-4257.00
0.2160,0.7840	-4256.96
0.1768,0.8232	-4224.70
0.2084,0.7916	-4283.73
0.1862,0.8138	-4227.00
0.2131,0.7869	-4249.11
0.1918,0.8082	-4222.54
0.2016,0.7984	-4247.77
0.1745,0.8255	-4238.95
0.2002,0.7998	-4236.75
0.2131,0.7869	-4258.25
0.1736,0.8264	-4223.53
0.1948,0.8052	-4233.97
0.2040,0.7960	-4250.43
0.1894,0.8106	-4238.53
0.1989,0.8011	-4240.92
0.1929,0.8071	-4241.17
0.2077,0.7923	-4258.40
0.2136,0.7864	-4253.03
0.2371,0.7629	-4260.78
0.2160,0.7840	-4245.36
0.1949,0.8051	-4256.66
0.2132,0.7868	-4260.86
0.2072,0.7928	-4253.05
0.2166,0.7834	-4251.83
0.2065,0.7935	-4243.65
0.2057,0.7943	-4247.69
0.1896,0.8104	-4244.32
0.2353,0.7647	-4279.44
0.1799,0.8201	-4219.86
0.2136,0.7864	-4249.12
0.2484,0.7516	-4278.96
0.1946,0.8054	-4222.61
0.2414,0.7586	-4289.94
0.2382,0.7618	-4264.40
0.1817,0.8183	-4257.39
0.2404,0.7596	-4277.29
0.2287,0.7713	-4261.22
0.2002,0.7998	-4229.82
0.2296,0.7704	-4252.81
0.2351,0.7649	-4268.83
0.1790,0.8210	-4218.39
0.2354,0.7646	-4284.16
0.2284,0.7716	-4242.94
0.2090,0.7910	-4235.72
0.2281,0.7719	-4255.09
0.2119,0.7881	-4243.82
0.1965,0.8035	-4252.26
0.2095,0.7905	-4234.43
0.2187,0.7813	-4248.10
0.2277,0.7723	-4264.82
0.2272,0.7728	-4247.66
0.2044,0.7956	-4277.61
0.2001,0.7999	-4253.38
0.1960,0.8040	-4242.42
0.1917,0.8083	-4231.18
0.2374,0.7626	-4247.98
0.2224,0.7776	-4257.16
0.2053,0.7947	-4251.75
0.2145,0.7855	-4258.24
0.1794,0.8206	-4239.65
0.1725,0.8275	-4206.42
0.2341,0.7659	-4259.28
0.2298,0.7702	-4261.29
0.2137,0.7863	-4245.22
0.2145,0.7855	-4260.84
0.2102,0.7898	-4245.07
0.1713,0.8287	-4226.98
0.1982,0.8018	-4242.34
0.2249,0.7751	-4256.06
0.2608,0.7392	-4265.78
0.1882,0.8118	-4229.85
0.2285,0.7715	-4258.77
0.1839,0.8161	-4228.62
0.1833,0.8167	-4246.59
0.2230,0.7770	-4265.93
0.2336,0.7664	-4269.92
0.1841,0.8159	-4230.10
0.2067,0.7933	-4263.83
0.2132,0.7868	-4250.42
0.1964,0.8036	-4245.22
0.2076,0.7924	-4251.70
0.2023,0.7977	-4227.17
0.1946,0.8054	-4259.54
0.1646,0.8354	-4251.00
0.2143,0.7857	-4254.35
0.2068,0.7932	-4258.44
0.2074,0.7926	-4245.00
0.2009,0.7991	-4231.23
0.1749,0.8251	-4248.18
0.1818,0.8182	-4212.24
0.2016,0.7984	-4261.54
0.2216,0.7784	-4254.61
0.2094,0.7906	-4233.09
0.2046,0.7954	-4255.85
0.1803,0.8197	-4245.58
0.1979,0.8021	-4238.15
0.1989,0.8011	-4239.53
0.2260,0.7740	-4265.99
0.2094,0.7906	-4245.05
0.2026,0.7974	-4247.74
0.2096,0.7904	-4254.34
0.1971,0.8029	-4224.12
0.2152,0.7848	-4264.71
0.2237,0.7763	-4278.38
0.2084,0.7916	-4235.68
0.2331,0.7669	-4267.51
0.2079,0.7921	-4254.37
0.1990,0.8010	-4245.10
0.2070,0.7930	-4266.48
0.2156,0.7844	-4236.30
0.2263,0.7737	-4247.56
0.2218,0.7782	-4269.68
0.1848,0.8152	-4225.59
0.1959,0.8041	-4233.96
0.1906,0.8094	-4242.78
0.2325,0.7675	-4261.50
0.2304,0.7696	-4262.55
0.2025,0.7975	-4258.71
0.1929,0.8071	-4232.58
0.2023,0.7977	-4255.98
0.2013,0.7987	-4235.38
0.2155,0.7845	-4254.37
0.2181,0.7819	-4263.38
0.2295,0.7705	-4250.37
0.1879,0.8121	-4243.04
0.1967,0.8033	-4218.47
0.2020,0.7980	-4234.02
0.2053,0.7947	-4258.52
0.2254,0.7746	-4273.38
0.2365,0.7635	-4254.86
0.1839,0.8161	-4222.66
0.1999,0.8001	-4218.71
0.1948,0.8052	-4249.58
0.1950,0.8050	-4245.31
0.2336,0.7664	-4280.61
0.2003,0.7997	-4218.75
0.2010,0.7990	-4254.69
0.1992,0.8008	-4242.31
0.2267,0.7733	-4259.87
0.1792,0.8208	-4230.56
0.2243,0.7757	-4265.95
0.1826,0.8174	-4215.23
0.1981,0.8019	-4259.12
0.1990,0.8010	-4240.92
0.2236,0.7764	-4243.53
0.2047,0.7953	-4247.70
0.2197,0.7803	-4274.79
0.1773,0.8227	-4230.79
0.2072,0.7928	-4250.37
0.2137,0.7863	-4250.43
0.2191,0.7809	-4239.23
0.2088,0.7912	-4246.36
0.1981,0.8019	-4254.93
0.2108,0.7892	-4268.85
0.1939,0.8061	-4253.93
0.2063,0.7937	-4243.64
0.1989,0.8011	-4260.42
0.1862,0.8138	-4243.23
0.2073,0.7927	-4254.39
0.2130,0.7870	-4245.19
0.2088,0.7912	-4251.69
0.1985,0.8015	-4245.12
0.2115,0.7885	-4264.86
0.2149,0.7851	-4260.83
0.2227,0.7773	-4253.42
0.2023,0.7977	-4250.49
0.2422,0.7578	-4272.83
0.2006,0.7994	-4254.72
0.2120,0.7880	-4260.89
0.1859,0.8141	-4235.88
0.1978,0.8022	-4242.35
0.2284,0.7716	-4269.72
0.2321,0.7679	-4274.64
0.1951,0.8049	-4258.06
0.2028,0.7972	-4269.64
0.1967,0.8033	-4236.76
0.1754,0.8246	-4232.59
0.2179,0.7821	-4268.50
0.2076,0.7924	-4265.10
0.2011,0.7989	-4257.45
0.1861,0.8139	-4231.43
0.2313,0.7687	-4284.23
0.1980,0.8020	-4235.35
0.2302,0.7698	-4275.81
0.2075,0.7925	-4259.75
0.2025,0.7975	-4235.41
0.1909,0.8091	-4219.65
0.2043,0.7957	-4244.99
0.2223,0.7777	-4259.66
0.2144,0.7856	-4242.66
0.2191,0.7809	-4250.67
0.1971,0.8029	-4236.76
0.2132,0.7868	-4243.89
0.1840,0.8160	-4221.17
0.2223,0.7777	-4270.93
0.2285,0.7715	-4253.91
0.2044,0.7956	-4280.32
0.2327,0.7673	-4262.72
0.2307,0.7693	-4272.20
0.1961,0.8039	-4238.19
0.1975,0.8025	-4250.78
0.2217,0.7783	-4260.89
0.1968,0.8032	-4252.23
0.2168,0.7832	-4269.81
0.2155,0.7845	-4245.32
0.1926,0.8074	-4241.19
0.2342,0.7658	-4259.30
0.2269,0.7731	-4253.76
0.1803,0.8197	-4241.04
0.1916,0.8084	-4236.94
0.2081,0.7919	-4257.04
0.2111,0.7889	-4259.60
0.2222,0.7778	-4290.98
0.2087,0.7913	-4238.36
0.1825,0.8175	-4245.22
0.1859,0.8141	-4243.26
0.2033,0.7967	-4236.80
0.1865,0.8135	-4246.14
0.2122,0.7878	-4255.64
0.1866,0.8134	-4225.51
0.1950,0.8050	-4238.22
0.1997,0.8003	-4258.95
0.2023,0.7977	-4235.40
0.2078,0.7922	-4223.60
0.2102,0.7898	-4259.63
0.1976,0.8024	-4257.78
0.2048,0.7952	-4244.98
0.2431,0.7569	-4269.50
0.2138,0.7862	-4253.04
0.1979,0.8021	-4247.94
0.2159,0.7841	-4258.25
0.2001,0.7999	-4232.59
0.2132,0.7868	-4238.67
0.2229,0.7771	-4264.68
0.2277,0.7723	-4267.27
0.2205,0.7795	-4241.93
0.2296,0.7704	-4251.60
0.2198,0.7802	-4246.91
0.1908,0.8092	-4247.10
0.2544,0.7456	-4283.86
0.1934,0.8066	-4229.72
0.2279,0.7721	-4234.32
0.2018,0.7982	-4245.02
0.1886,0.8114	-4238.58
0.2179,0.7821	-4257.00
0.2576,0.7424	-4285.23
0.1797,0.8203	-4215.31
0.2107,0.7893	-4259.62
0.2024,0.7976	-4251.86
0.1936,0.8064	-4228.29
0.1860,0.8140	-4255.06
0.2136,0.7864	-4255.64
0.1978,0.8022	-4226.95
0.2186,0.7814	-4254.46
0.1874,0.8126	-4234.29
0.1860,0.8140	-4241.78
0.2330,0.7670	-4280.61
0.2100,0.7900	-4255.66
0.2381,0.7619	-4274.86
0.2067,0.7933	-4238.27
0.2072,0.7928	-4266.47
0.1776,0.8224	-4241.47
0.2183,0.7817	-4248.07
0.2245,0.7755	-4248.60
0.2061,0.7939	-4254.43
0.2264,0.7736	-4264.77
0.1865,0.8135	-4225.52
0.1968,0.8032	-4228.32
0.2162,0.7838	-4259.54
0.1950,0.8050	-4235.38
0.2122,0.7878	-4263.51
0.1978,0.8022	-4238.15
0.2187,0.7813	-4231.55
0.2088,0.7912	-4246.36
0.2301,0.7699	-4244.40
0.2154,0.7846	-4249.19
0.2086,0.7914	-4251.69
0.2183,0.7817	-4269.76
0.2311,0.7689	-4254.18
0.1941,0.8059	-4242.52
0.2289,0.7711	-4274.59
0.1891,0.8109	-4244.38
0.2140,0.7860	-4247.84
0.2276,0.7724	-4248.93
0.2479,0.7521	-4286.70
0.2269,0.7731	-4259.88
0.2143,0.7857	-4246.55
0.2205,0.7795	-4230.55
0.1914,0.8086	-4213.89
0.1929,0.8071	-4254.06
0.2076,0.7924	-4249.02
0.1971,0.8029	-4231.14
0.2139,0.7861	-4241.33
0.1872,0.8128	-4248.98
0.2071,0.7929	-4245.00
0.2275,0.7725	-4285.60
0.2177,0.7823	-4240.36
0.2021,0.7979	-4245.01
0.2205,0.7795	-4264.65
0.1980,0.8020	-4253.53
0.1980,0.8020	-4231.15
0.2164,0.7836	-4255.68
0.1927,0.8073	-4216.83
0.2456,0.7544	-4263.03
0.1998,0.8002	-4243.68
0.2126,0.7874	-4258.26
0.2024,0.7976	-4253.23
0.2172,0.7828	-4246.72
0.2004,0.7996	-4269.96
0.2348,0.7652	-4277.08
0.2081,0.7919	-4258.38
0.2217,0.7783	-4249.59
0.2078,0.7922	-4253.04
0.2482,0.7518	-4270.09
0.2016,0.7984	-4240.89
0.2151,0.7849	-4254.36
0.1940,0.8060	-4226.86
0.2046,0.7954	-4255.85
0.2042,0.7958	-4254.51
0.2161,0.7839	-4263.40
0.1849,0.8151	-4225.58
0.1946,0.8054	-4245.33
0.1972,0.8028	-4232.55
0.2006,0.7994	-4224.31
0.2295,0.7705	-4255.22
0.2231,0.7769	-4253.45
0.2269,0.7731	-4261.11
0.1980,0.8020	-4222.76
0.2093,0.7907	-4250.36
0.2318,0.7682	-4241.08
0.2133,0.7867	-4249.11
0.2339,0.7661	-4258.07
0.2199,0.7801	-4264.65
0.2022,0.7978	-4229.91
0.1964,0.8036	-4226.91
0.2037,0.7963	-4254.53
0.2096,0.7904	-4237.08
0.2427,0.7573	-4267.18
0.2041,0.7959	-4247.71
0.1978,0.8022	-4224.15
0.2205,0.7795	-4269.70
0.2066,0.7934	-4249.03
0.2229,0.7771	-4283.41
0.2191,0.7809	-4246.86
0.2114,0.7886	-4253.01
0.2077,0.7923	-4275.81
0.2203,0.7797	-4240.63
0.2503,0.7497	-4282.42
0.2268,0.7732	-4259.88
0.2132,0.7868	-4233.44
0.1990,0.8010	-4239.53
0.1994,0.8006	-4236.74
0.2422,0.7578	-4267.12
0.2221,0.7779	-4257.14
0.2313,0.7687	-4271.02
0.1959,0.8041	-4248.08
0.2093,0.7907	-4254.35
0.2081,0.7919	-4239.67
0.2268,0.7732	-4251.30
0.2188,0.7812	-4248.11
0.2348,0.7652	-4278.26
0.1929,0.8071	-4226.86
0.2201,0.7799	-4264.65
0.2104,0.7896	-4247.72
0.2159,0.7841	-4255.67
0.2019,0.7981	-4264.26
0.2104,0.7896	-4255.66
0.1854,0.8146	-4244.80
0.2096,0.7904	-4241.07
0.1811,0.8189	-4234.88
0.1843,0.8157	-4219.67
0.1950,0.8050	-4241.06
0.2036,0.7964	-4247.72
0.1679,0.8321	-4225.98
0.2103,0.7897	-4250.37
0.1903,0.8097	-4213.84
0.1989,0.8011	-4228.38
0.1766,0.8234	-4230.88
0.1997,0.8003	-4233.97
0.2039,0.7961	-4227.28
0.2302,0.7698	-4279.43
0.2250,0.7750	-4251.12
0.2034,0.7966	-4262.74
0.1990,0.8010	-4259.02
0.2016,0.7984	-4250.53
0.2234,0.7766	-4255.97
0.2218,0.7782	-4249.60
0.2201,0.7799	-4253.26
0.2197,0.7803	-4253.24
0.2104,0.7896	-4255.66
0.2082,0.7918	-4226.32
0.2452,0.7548	-4262.98
0.2168,0.7832	-4235.14
0.1974,0.8026	-4250.78
0.2180,0.7820	-4264.66
0.2005,0.7995	-4225.68
0.2318,0.7682	-4259.05
0.2046,0.7954	-4251.78
0.1955,0.8045	-4246.69
0.2210,0.7790	-4264.65
0.2116,0.7884	-4245.12
0.2041,0.7959	-4244.99
0.2017,0.7983	-4261.52
0.2137,0.7863	-4242.62
0.2146,0.7854	-4254.35
0.2193,0.7807	-4251.95
0.2098,0.7902	-4234.45
0.2048,0.7952	-4255.84
0.2014,0.7986	-4234.01
0.1923,0.8077	-4229.73
0.1840,0.8160	-4225.63
0.2322,0.7678	-4275.83
0.2358,0.7642	-4281.81
0.2277,0.7723	-4251.39
0.2085,0.7915	-4255.70
0.1844,0.8156	-4230.07
0.2352,0.7648	-4261.76
0.2017,0.7983	-4258.78
0.2247,0.7753	-4248.62
0.2352,0.7648	-4279.44
0.1975,0.8025	-4264.80
0.1866,0.8134	-4221.10
0.2213,0.7787	-4268.43
0.1895,0.8105	-4219.62
0.2256,0.7744	-4254.88
0.2414,0.7586	-4275.05
0.2378,0.7622	-4276.01
0.1962,0.8038	-4253.70
0.2029,0.7971	-4246.37
0.1921,0.8079	-4236.91
0.2022,0.7978	-4257.36
0.2367,0.7633	-4263.08
0.2080,0.7920	-4255.71
0.2204,0.7796	-4253.28
0.2417,0.7583	-4259.07
0.1757,0.8243	-4234.10
0.2084,0.7916	-4239.68
0.2388,0.7612	-4252.87
0.1999,0.8001	-4221.49
0.2064,0.7936	-4247.68
0.2293,0.7707	-4270.96
0.2024,0.7976	-4235.41
0.2090,0.7910	-4242.37
0.2043,0.7957	-4262.66
0.2164,0.7836	-4253.11
0.2197,0.7803	-4255.78
0.2024,0.7976	-4236.78
0.2066,0.7934	-4269.21
0.2122,0.7878	-4250.39
0.2024,0.7976	-4261.47
0.1994,0.8006	-4227.01
0.2120,0.7880	-4234.64
0.1959,0.8041	-4246.67
0.2331,0.7669	-4263.94
0.2277,0.7723	-4264.82
0.2003,0.7997	-4245.06
0.1916,0.8084	-4242.70
0.2113,0.7887	-4253.01
0.2007,0.7993	-4256.10
0.2367,0.7633	-4265.42
0.2008,0.7992	-4242.28
0.2044,0.7956	-4230.04
0.1817,0.8183	-4237.83
0.1993,0.8007	-4238.13
0.2171,0.7829	-4254.41
0.2102,0.7898	-4267.58
0.1926,0.8074	-4226.86
0.2127,0.7873	-4250.40
0.2311,0.7689	-4260.20
0.2002,0.7998	-4260.29
0.1991,0.8009	-4236.74
0.2164,0.7836	-4263.40
0.1895,0.8105	-4244.33
0.2206,0.7794	-4263.39
0.2220,0.7780	-4249.61
0.1873,0.8127	-4231.36
0.2032,0.7968	-4236.80
0.2129,0.7871	-4264.79
0.1815,0.8185	-4237.84
0.2339,0.7661	-4262.82
0.1967,0.8033	-4238.17
0.2180,0.7820	-4277.43
0.2000,0.8000	-4246.45
0.1815,0.8185	-4243.87
0.1926,0.8074	-4262.68
0.1977,0.8023	-4250.76
0.1888,0.8112	-4254.60
0.2091,0.7909	-4272.98
0.2086,0.7914	-4253.03
0.2139,0.7861	-4259.55
0.2053,0.7947	-4244.98
0.2037,0.7963	-4238.17
0.1805,0.8195	-4227.39
0.2076,0.7924	-4259.74
0.2135,0.7865	-4267.38
0.2285,0.7715	-4255.13
0.2002,0.7998	-4222.89
0.1892,0.8108	-4222.53
0.1850,0.8150	-4243.38
0.2412,0.7588	-4264.73
0.2077,0.7923	-4235.64
0.2198,0.7802	-4259.58
0.2161,0.7839	-4242.78
0.2065,0.7935	-4247.68
0.1948,0.8052	-4249.58
0.2060,0.7940	-4258.48
0.2121,0.7879	-4246.45
0.2195,0.7805	-4248.16
0.2103,0.7897	-4256.98
0.2208,0.7792	-4250.78
0.2137,0.7863	-4246.52
0.1982,0.8018	-4225.57
0.2214,0.7786	-4252.08
0.2084,0.7916	-4246.36
0.2542,0.7458	-4278.46
0.2242,0.7758	-4252.29
0.2176,0.7824	-4254.43
0.2171,0.7829	-4256.98
0.2288,0.7712	-4264.88
0.2408,0.7592	-4288.79
0.2162,0.7838	-4253.10
0.2005,0.7995	-4232.60
0.2170,0.7830	-4259.54
0.2108,0.7892	-4249.05
0.2065,0.7935	-4239.61
0.2284,0.7716	-4251.46
0.2005,0.7995	-4257.50
0.2156,0.7844	-4253.08
0.2373,0.7627	-4275.99
0.2007,0.7993	-4251.95
0.1666,0.8334	-4213.35
0.2159,0.7841	-4256.96
0.2168,0.7832	-4255.69
0.2261,0.7739	-4242.61
0.2113,0.7887	-4255.65
0.2014,0.7986	-4243.65
0.1734,0.8266	-4234.47
0.2186,0.7814	-4251.92
0.2086,0.7914	-4234.36
0.2330,0.7670	-4263.93
0.2269,0.7731	-4262.34
0.1980,0.8020	-4222.76
0.1967,0.8033	-4248.02
0.2233,0.7767	-4257.20
0.2091,0.7909	-4278.29
0.2421,0.7579	-4257.98
0.1900,0.8100	-4239.93
0.2015,0.7985	-4256.04
0.1957,0.8043	-4249.51
0.2193,0.7807	-4263.38
0.2070,0.7930	-4259.77
0.2310,0.7690	-4262.59
0.1926,0.8074	-4241.19
0.2143,0.7857	-4269.94
0.2098,0.7902	-4233.12
0.2118,0.7882	-4256.96
0.2444,0.7556	-4270.76
0.1811,0.8189	-4240.91
0.1935,0.8065	-4242.56
0.2097,0.7903	-4267.61
0.1879,0.8121	-4256.21
0.2097,0.7903	-4242.40
0.2277,0.7723	-4290.47
0.2056,0.7944	-4257.15
0.2128,0.7872	-4250.41
0.2023,0.7977	-4243.64
0.2136,0.7864	-4259.55
0.2242,0.7758	-4242.36
0.2140,0.7860	-4259.55
0.1984,0.8016	-4260.49
0.2240,0.7760	-4259.73
0.1847,0.8153	-4222.62
0.2102,0.7898	-4262.28
0.2068,0.7932	-4258.44
0.2213,0.7787	-4270.95
0.2037,0.7963	-4236.81
0.2080,0.7920	-4254.37
0.2044,0.7956	-4257.22
0.1883,0.8117	-4228.38
0.2110,0.7890	-4251.69
0.2359,0.7641	-4255.95
0.2010,0.7990	-4247.80
0.2029,0.7971	-4247.73
0.2107,0.7893	-4259.61
0.2051,0.7949	-4236.85
0.2276,0.7724	-4274.59
0.2356,0.7644	-4277.09
0.1726,0.8274	-4220.52
0.2105,0.7895	-4247.72
0.2051,0.7949	-4223.31
0.2160,0.7840	-4256.96
0.1999,0.8001	-4265.87
0.2316,0.7684	-4271.03
0.1800,0.8200	-4219.85
0.2396,0.7604	-4284.18
0.2127,0.7873	-4256.95
0.2182,0.7818	-4249.35
0.2255,0.7745	-4252.40
0.2302,0.7698	-4267.36
0.1992,0.8008	-4243.70
0.2188,0.7812	-4259.56
0.1824,0.8176	-4243.73
0.2047,0.7953	-4246.34
0.2028,0.7972	-4232.68
0.2276,0.7724	-4257.49
0.1973,0.8027	-4250.79
0.2203,0.7797	-4260.86
0.2222,0.7778	-4252.14
0.2081,0.7919	-4247.69
0.2168,0.7832	-4268.53
0.2033,0.7967	-4258.65
0.2084,0.7916	-4257.03
0.2323,0.7677	-4274.64
0.2211,0.7789	-4240.73
0.2174,0.7826	-4259.54
0.2307,0.7693	-4269.79
0.2462,0.7538	-4273.20
0.2122,0.7878	-4254.33
0.2345,0.7655	-4279.43
0.2264,0.7736	-4264.77
0.2212,0.7788	-4267.17
0.2027,0.7973	-4258.70
0.1919,0.8081	-4235.49
0.2152,0.7848	-4245.31
0.2558,0.7442	-4267.97
0.2253,0.7747	-4251.15
0.2182,0.7818	-4253.17
0.2057,0.7943	-4240.93
0.2179,0.7821	-4283.83
0.2033,0.7967	-4255.92
0.2156,0.7844	-4259.54
0.2115,0.7885	-4251.70
0.2023,0.7977	-4249.12
0.2169,0.7831	-4242.85
0.1952,0.8048	-4235.38
0.2381,0.7619	-4270.21
0.2215,0.7785	-4252.09
0.2147,0.7853	-4266.03
0.2075,0.7925	-4249.03
0.2179,0.7821	-4263.38
0.1995,0.8005	-4235.35
0.2306,0.7694	-4261.35
0.2351,0.7649	-4266.46
0.1998,0.8002	-4257.56
0.2224,0.7776	-4267.17
0.2065,0.7935	-4259.80
0.2112,0.7888	-4239.83
0.1955,0.8045	-4235.37
0.1948,0.8052	-4268.04
0.2099,0.7901	-4238.43
0.2212,0.7788	-4252.07
0.1873,0.8127	-4235.76
0.2241,0.7759	-4244.84
0.2080,0.7920	-4269.08
0.2157,0.7843	-4247.92
0.1966,0.8034	-4236.76
0.2511,0.7489	-4277.03
0.2030,0.7970	-4238.16
0.2229,0.7771	-4254.69
0.2031,0.7969	-4251.83
0.2063,0.7937	-4243.64
0.2060,0.7940	-4255.78
0.2538,0.7462	-4269.79
0.1997,0.8003	-4245.07
0.2241,0.7759	-4260.98
0.1856,0.8144	-4256.61
0.1860,0.8140	-4221.11
0.2333,0.7667	-4278.23
0.2238,0.7762	-4274.64
0.2050,0.7950	-4247.69
0.1878,0.8122	-4229.87
0.1984,0.8016	-4243.73
0.1951,0.8049	-4236.80
0.2352,0.7648	-4278.26
0.2226,0.7774	-4255.92
0.2162,0.7838	-4228.63
0.1921,0.8079	-4222.55
0.2065,0.7935	-4246.34
0.2049,0.7951	-4263.97
0.2052,0.7948	-4246.34
0.2032,0.7968	-4253.19
0.2151,0.7849	-4256.95
0.2114,0.7886	-4272.76
0.2476,0.7524	-4265.57
0.2290,0.7710	-4253.95
0.2087,0.7913	-4259.69
0.1975,0.8025	-4252.18
0.1883,0.8117	-4229.85
0.2328,0.7672	-4267.50
0.2187,0.7813	-4264.65
0.2042,0.7958	-4250.43
0.2219,0.7781	-4252.11
0.2021,0.7979	-4242.26
0.2044,0.7956	-4255.86
0.2037,0.7963	-4255.89
0.2011,0.7989	-4240.89
0.1959,0.8041	-4243.84
0.2169,0.7831	-4276.23
0.1943,0.8057	-4216.91
0.2178,0.7822	-4253.15
0.2168,0.7832	-4267.25
0.2341,0.7659	-4258.10
0.1950,0.8050	-4232.55
0.2054,0.7946	-4258.51
0.2220,0.7780	-4253.38
0.2326,0.7674	-4271.06
0.2419,0.7581	-4259.10
0.2309,0.7691	-4255.37
0.2002,0.7998	-4264.45
0.2277,0.7723	-4263.60
