#isoforms=['ENSG00000101294.SE.1.A.up_ENSG00000101294.SE.1.A.SE1_ENSG00000101294.SE.1.A.dn','ENSG00000101294.SE.1.B.up_ENSG00000101294.SE.1.B.dn']	exon_lens=('ENSG00000101294.SE.1.A.up',99),('ENSG00000101294.SE.1.A.SE1',376),('ENSG00000101294.SE.1.A.dn',89),('ENSG00000101294.SE.1.B.up',99),('ENSG00000101294.SE.1.B.dn',89)	iters=5000	burn_in=500	lag=10	percent_accept=87.72	proposal_type=drift	counts=(0,0):288,(1,0):128,(1,1):142	assigned_counts=0:183,1:87	chrom=chr20	strand=+	mRNA_starts=31527484,31527484	mRNA_ends=31545035,31545035
sampled_psi	log_score
0.3598,0.6402	-1741.69
0.3683,0.6317	-1746.56
0.3643,0.6357	-1740.58
0.3207,0.6793	-1732.95
0.3234,0.6766	-1733.72
0.3408,0.6592	-1741.29
0.3744,0.6256	-1738.69
0.3529,0.6471	-1738.10
0.3293,0.6707	-1729.52
0.2999,0.7001	-1727.99
0.3707,0.6293	-1741.73
0.3404,0.6596	-1740.63
0.3707,0.6293	-1745.43
0.3656,0.6344	-1742.24
0.3678,0.6322	-1736.83
0.2787,0.7213	-1735.77
0.3279,0.6721	-1745.25
0.3473,0.6527	-1743.07
0.3218,0.6782	-1740.42
0.3723,0.6277	-1741.22
0.3770,0.6230	-1738.29
0.2815,0.7185	-1724.35
0.3100,0.6900	-1728.94
0.3742,0.6258	-1744.85
0.3152,0.6848	-1731.38
0.4284,0.5716	-1746.48
0.3868,0.6132	-1740.17
0.2970,0.7030	-1735.73
0.2887,0.7113	-1731.60
0.3462,0.6538	-1732.29
0.3273,0.6727	-1733.76
0.4231,0.5769	-1746.66
0.3409,0.6591	-1737.33
0.2697,0.7303	-1738.42
0.3361,0.6639	-1740.04
0.3542,0.6458	-1734.51
0.2968,0.7032	-1731.42
0.4296,0.5704	-1747.36
0.3587,0.6413	-1730.66
0.2717,0.7283	-1733.31
0.3104,0.6896	-1729.75
0.3557,0.6443	-1736.36
0.2960,0.7040	-1737.50
0.3157,0.6843	-1732.93
0.3574,0.6426	-1737.00
0.2827,0.7173	-1729.94
0.3759,0.6241	-1739.76
0.3896,0.6104	-1744.33
0.3288,0.6712	-1737.34
0.3293,0.6707	-1733.07
0.3332,0.6668	-1731.07
0.3100,0.6900	-1737.74
0.4250,0.5750	-1747.90
0.4053,0.5947	-1744.95
0.3468,0.6532	-1734.86
0.3646,0.6354	-1740.02
0.3416,0.6584	-1737.33
0.3112,0.6888	-1741.67
0.3526,0.6474	-1733.23
0.3845,0.6155	-1741.48
0.3509,0.6491	-1743.60
0.3763,0.6237	-1737.75
0.2871,0.7129	-1730.74
0.2695,0.7305	-1740.43
0.3684,0.6316	-1736.31
0.3302,0.6698	-1738.75
0.3042,0.6958	-1729.69
0.3732,0.6268	-1739.68
0.2870,0.7130	-1728.92
0.3479,0.6521	-1737.40
0.3696,0.6304	-1743.85
0.3429,0.6571	-1735.39
0.2738,0.7262	-1734.16
0.3610,0.6390	-1737.12
0.3244,0.6756	-1733.73
0.3468,0.6532	-1741.19
0.3510,0.6490	-1735.61
0.3834,0.6166	-1738.12
0.2629,0.7371	-1741.14
0.3624,0.6376	-1742.82
0.3064,0.6936	-1727.25
0.3591,0.6409	-1743.43
0.3054,0.6946	-1733.81
0.3117,0.6883	-1733.72
0.2691,0.7309	-1724.49
0.3406,0.6594	-1741.95
0.3109,0.6891	-1724.18
0.3207,0.6793	-1735.95
0.3518,0.6482	-1736.86
0.3200,0.6800	-1741.24
0.2852,0.7148	-1738.14
0.3794,0.6206	-1739.39
0.3056,0.6944	-1741.19
0.3397,0.6603	-1737.32
0.3501,0.6499	-1733.73
0.3149,0.6851	-1731.37
0.2990,0.7010	-1731.39
0.4088,0.5912	-1745.39
0.3185,0.6815	-1737.50
0.3640,0.6360	-1745.04
0.3521,0.6479	-1739.30
0.3295,0.6705	-1737.34
0.3032,0.6968	-1733.85
0.4395,0.5605	-1745.85
0.3325,0.6675	-1737.32
0.3997,0.6003	-1742.01
0.3468,0.6532	-1738.02
0.3572,0.6428	-1733.47
0.3112,0.6888	-1732.93
0.3669,0.6331	-1742.24
0.3325,0.6675	-1746.38
0.3865,0.6135	-1743.39
0.3314,0.6686	-1733.11
0.2925,0.7075	-1727.09
0.3137,0.6863	-1739.19
0.3666,0.6334	-1740.06
0.2900,0.7100	-1732.46
0.3307,0.6693	-1742.97
0.3300,0.6700	-1731.67
0.2876,0.7124	-1728.91
0.2692,0.7308	-1733.47
0.3915,0.6085	-1742.14
0.3504,0.6496	-1733.74
0.3120,0.6880	-1740.05
0.3327,0.6673	-1738.71
0.2672,0.7328	-1734.62
0.3009,0.6991	-1738.12
0.3367,0.6633	-1739.35
0.3413,0.6587	-1737.33
0.3712,0.6288	-1743.84
0.3552,0.6448	-1734.56
0.3051,0.6949	-1736.28
0.3223,0.6777	-1737.43
0.3505,0.6495	-1742.38
0.3595,0.6405	-1738.80
0.3522,0.6478	-1732.60
0.3767,0.6233	-1740.29
0.2891,0.7109	-1732.49
0.3408,0.6592	-1737.99
0.3624,0.6376	-1739.43
0.3577,0.6423	-1739.36
0.2902,0.7098	-1742.29
0.3723,0.6277	-1736.52
0.2991,0.7009	-1729.69
0.3317,0.6683	-1733.82
0.3814,0.6186	-1740.92
0.3520,0.6480	-1738.69
0.3024,0.6976	-1734.70
0.3559,0.6441	-1742.89
0.3119,0.6881	-1744.80
0.3376,0.6624	-1731.25
0.3422,0.6578	-1742.57
0.3244,0.6756	-1735.19
0.3063,0.6937	-1724.80
0.3250,0.6750	-1730.08
0.3415,0.6585	-1741.27
0.3426,0.6574	-1739.95
0.3399,0.6601	-1732.68
0.3297,0.6703	-1740.88
0.3597,0.6403	-1739.38
0.3309,0.6691	-1737.33
0.3098,0.6902	-1736.95
0.3832,0.6168	-1740.02
0.3866,0.6134	-1742.00
0.3535,0.6465	-1736.29
0.3681,0.6319	-1738.46
0.3447,0.6553	-1739.29
0.2830,0.7170	-1732.72
0.3294,0.6706	-1733.07
0.3733,0.6267	-1738.64
0.3143,0.6857	-1739.95
0.3390,0.6610	-1739.99
0.3116,0.6884	-1731.35
0.2703,0.7297	-1738.36
0.3455,0.6545	-1738.65
0.3485,0.6515	-1742.42
0.2726,0.7274	-1724.42
0.3552,0.6448	-1733.96
0.3367,0.6633	-1740.70
0.3044,0.6956	-1733.82
0.3434,0.6566	-1738.00
0.3263,0.6737	-1743.17
0.2556,0.7444	-1731.35
0.4023,0.5977	-1746.88
0.3251,0.6749	-1728.62
0.2986,0.7014	-1727.13
0.3476,0.6524	-1746.21
0.3176,0.6824	-1731.40
0.2927,0.7073	-1734.15
0.4049,0.5951	-1745.33
0.3437,0.6563	-1733.47
0.3173,0.6827	-1733.70
0.4050,0.5950	-1745.33
0.3034,0.6966	-1726.36
0.3182,0.6818	-1743.60
0.4372,0.5628	-1745.23
0.3048,0.6952	-1733.82
0.3177,0.6823	-1732.17
0.3853,0.6147	-1745.24
0.2830,0.7170	-1728.07
0.3117,0.6883	-1732.93
0.4085,0.5915	-1746.49
0.3177,0.6823	-1744.40
0.2984,0.7016	-1727.98
0.3937,0.6063	-1744.80
0.2938,0.7062	-1720.95
0.3196,0.6804	-1734.46
0.4182,0.5818	-1742.95
0.3396,0.6604	-1741.98
0.3250,0.6750	-1732.27
0.3873,0.6127	-1742.48
0.3162,0.6838	-1735.24
0.3052,0.6948	-1722.29
0.4009,0.5991	-1745.68
0.3555,0.6445	-1735.76
0.3648,0.6352	-1736.70
0.4022,0.5978	-1741.33
0.3740,0.6260	-1739.19
0.3327,0.6673	-1737.32
0.3962,0.6038	-1738.50
0.3417,0.6583	-1740.61
0.3613,0.6387	-1738.84
0.3820,0.6180	-1742.86
0.3440,0.6560	-1739.29
0.3268,0.6732	-1737.36
0.4144,0.5856	-1741.01
0.3857,0.6143	-1742.91
0.3557,0.6443	-1735.77
0.3309,0.6691	-1733.10
0.3670,0.6330	-1744.42
0.3570,0.6430	-1743.47
0.3755,0.6245	-1743.82
0.3799,0.6201	-1738.91
0.3318,0.6682	-1738.02
0.3527,0.6473	-1737.49
0.3681,0.6319	-1735.22
0.3494,0.6506	-1736.80
0.3897,0.6103	-1737.60
0.3813,0.6187	-1742.85
0.3104,0.6896	-1732.94
0.3825,0.6175	-1739.99
0.3426,0.6574	-1739.95
0.3607,0.6393	-1735.96
0.3653,0.6347	-1735.06
0.3908,0.6092	-1746.56
0.3646,0.6354	-1747.25
0.3598,0.6402	-1744.57
0.3230,0.6770	-1735.19
0.3916,0.6084	-1742.14
0.3830,0.6170	-1740.49
0.4085,0.5915	-1746.49
0.3605,0.6395	-1739.97
0.4191,0.5809	-1747.90
0.3378,0.6622	-1736.64
0.3862,0.6138	-1742.46
0.3965,0.6035	-1743.14
0.4426,0.5574	-1749.48
0.4025,0.5975	-1741.35
0.4226,0.5774	-1747.59
0.3975,0.6025	-1738.60
0.3350,0.6650	-1735.26
0.4038,0.5962	-1741.02
0.4529,0.5471	-1745.49
0.2910,0.7090	-1731.54
0.4086,0.5914	-1743.16
0.3862,0.6138	-1742.46
0.3485,0.6515	-1738.04
0.3476,0.6524	-1737.40
0.4053,0.5947	-1745.33
0.3367,0.6633	-1740.70
0.4146,0.5854	-1749.64
0.3387,0.6613	-1748.03
0.3732,0.6268	-1738.12
0.3392,0.6608	-1737.99
0.4384,0.5616	-1745.55
0.3449,0.6551	-1737.36
0.3301,0.6699	-1740.87
0.3107,0.6893	-1734.53
0.3698,0.6302	-1739.05
0.3613,0.6387	-1737.13
0.3747,0.6253	-1740.75
0.3628,0.6372	-1738.87
0.3280,0.6720	-1737.35
0.2841,0.7159	-1734.52
0.4053,0.5947	-1741.50
0.3415,0.6585	-1736.68
0.3326,0.6674	-1731.05
0.3096,0.6904	-1731.34
0.3465,0.6535	-1734.21
0.3298,0.6702	-1732.37
0.4212,0.5788	-1748.85
0.3000,0.7000	-1738.16
0.3197,0.6803	-1735.21
0.3710,0.6290	-1741.20
0.3132,0.6868	-1736.07
0.3657,0.6343	-1746.65
0.3660,0.6340	-1738.95
0.2852,0.7148	-1731.71
0.3223,0.6777	-1735.20
0.3839,0.6161	-1738.15
0.3454,0.6546	-1732.26
0.3593,0.6407	-1735.33
0.3353,0.6647	-1734.58
0.2814,0.7186	-1727.16
0.2983,0.7017	-1725.41
0.3987,0.6013	-1739.51
0.2951,0.7049	-1730.58
0.3498,0.6502	-1737.43
0.3272,0.6728	-1737.36
0.3116,0.6884	-1734.52
0.3126,0.6874	-1736.87
0.3455,0.6545	-1739.29
0.2629,0.7371	-1732.90
0.2935,0.7065	-1732.36
0.3557,0.6443	-1733.99
0.3505,0.6495	-1738.06
0.2971,0.7029	-1728.83
0.3610,0.6390	-1739.97
0.3188,0.6812	-1735.98
0.2919,0.7081	-1732.40
0.3741,0.6259	-1741.76
0.3859,0.6141	-1743.84
0.3125,0.6875	-1736.87
0.3793,0.6207	-1737.41
0.3234,0.6766	-1741.84
0.2396,0.7604	-1723.64
0.3419,0.6581	-1749.12
0.4288,0.5712	-1743.91
0.3681,0.6319	-1735.22
0.3737,0.6263	-1737.11
0.3442,0.6558	-1741.23
0.2708,0.7292	-1737.33
0.3186,0.6814	-1739.02
0.4427,0.5573	-1744.41
0.4010,0.5990	-1743.27
0.3748,0.6252	-1741.77
0.3557,0.6443	-1738.14
0.3133,0.6867	-1736.07
0.3546,0.6454	-1741.12
0.4524,0.5476	-1747.93
0.3325,0.6675	-1740.80
0.3255,0.6745	-1729.36
0.3478,0.6522	-1743.69
0.2937,0.7063	-1734.99
0.3458,0.6542	-1731.00
0.4434,0.5566	-1746.75
0.3218,0.6782	-1731.47
0.3174,0.6826	-1735.23
0.3350,0.6650	-1732.51
0.3091,0.6909	-1735.36
0.3856,0.6144	-1738.72
0.4632,0.5368	-1749.08
0.3050,0.6950	-1737.93
0.3395,0.6605	-1735.32
0.3646,0.6354	-1740.02
0.3172,0.6828	-1736.00
0.3730,0.6270	-1742.79
0.4380,0.5620	-1745.28
0.2832,0.7168	-1729.93
0.3072,0.6928	-1723.21
0.3914,0.6086	-1743.02
0.3259,0.6741	-1732.29
0.3552,0.6448	-1736.94
0.4194,0.5806	-1746.60
0.2695,0.7305	-1728.47
0.2943,0.7057	-1733.22
0.3596,0.6404	-1745.73
0.3524,0.6476	-1736.87
0.3920,0.6080	-1744.79
0.4112,0.5888	-1742.20
0.2742,0.7258	-1722.45
0.3031,0.6969	-1733.85
0.4018,0.5982	-1742.10
0.3883,0.6117	-1743.87
0.3472,0.6528	-1739.92
0.3718,0.6282	-1743.31
0.3104,0.6896	-1740.92
0.3227,0.6773	-1748.54
0.3910,0.6090	-1738.58
0.4083,0.5917	-1743.90
0.4033,0.5967	-1741.00
0.3817,0.6183	-1741.89
0.3674,0.6326	-1740.61
0.3243,0.6757	-1730.79
0.4161,0.5839	-1746.55
0.4240,0.5760	-1748.82
0.3710,0.6290	-1735.39
0.4284,0.5716	-1746.48
0.4041,0.5959	-1742.98
0.3356,0.6644	-1731.85
0.4511,0.5489	-1748.08
0.3893,0.6107	-1736.22
0.3691,0.6309	-1740.10
0.4116,0.5884	-1744.37
0.3857,0.6143	-1747.10
0.3578,0.6422	-1739.36
0.4096,0.5904	-1745.77
0.3518,0.6482	-1742.97
0.3425,0.6575	-1741.25
0.4150,0.5850	-1745.17
0.3266,0.6734	-1738.81
0.3328,0.6672	-1745.67
0.3915,0.6085	-1737.29
0.4091,0.5909	-1744.29
0.3655,0.6345	-1738.93
0.4621,0.5379	-1748.30
0.4018,0.5982	-1748.07
0.2787,0.7213	-1731.97
0.3864,0.6136	-1741.08
0.3646,0.6354	-1746.69
0.3655,0.6345	-1746.10
0.3894,0.6106	-1745.23
0.3884,0.6116	-1742.96
0.3138,0.6862	-1739.97
0.3947,0.6053	-1740.53
0.3369,0.6631	-1740.70
0.3710,0.6290	-1739.09
0.3459,0.6541	-1735.46
0.3306,0.6694	-1738.03
0.3732,0.6268	-1736.05
0.3921,0.6079	-1743.03
0.3617,0.6383	-1738.85
0.3594,0.6406	-1734.76
0.4054,0.5946	-1743.80
0.3690,0.6310	-1740.64
0.3094,0.6906	-1740.97
0.3683,0.6317	-1739.55
0.2882,0.7118	-1729.81
0.3334,0.6666	-1735.24
0.3944,0.6056	-1746.09
0.3831,0.6169	-1741.92
0.3307,0.6693	-1734.51
0.4069,0.5931	-1744.22
0.3445,0.6555	-1739.93
0.3202,0.6798	-1735.96
0.4107,0.5893	-1743.98
0.4319,0.5681	-1745.75
0.2804,0.7196	-1730.01
0.3636,0.6364	-1744.49
0.3419,0.6581	-1736.68
0.3328,0.6672	-1736.62
0.4065,0.5935	-1745.73
0.4478,0.5522	-1750.08
0.2981,0.7019	-1735.69
0.3548,0.6452	-1741.72
0.3674,0.6326	-1742.79
0.3047,0.6953	-1725.57
0.4310,0.5690	-1745.72
0.4200,0.5800	-1744.99
0.3120,0.6880	-1736.09
0.3507,0.6493	-1744.22
0.3391,0.6609	-1731.98
0.3255,0.6745	-1742.48
0.3706,0.6294	-1740.14
0.3799,0.6201	-1739.90
0.3155,0.6845	-1735.25
0.3236,0.6764	-1741.83
0.3090,0.6910	-1732.14
0.3304,0.6696	-1735.21
0.3869,0.6131	-1742.93
0.4085,0.5915	-1740.57
0.3342,0.6658	-1731.11
0.3554,0.6446	-1735.16
0.3285,0.6715	-1737.35
0.3491,0.6509	-1736.17
0.3694,0.6306	-1738.51
0.4296,0.5704	-1742.54
0.3503,0.6497	-1736.20
0.2923,0.7077	-1735.05
0.2865,0.7135	-1735.32
0.3349,0.6651	-1738.00
0.3184,0.6816	-1737.50
0.4227,0.5773	-1747.27
0.3861,0.6139	-1740.13
0.2969,0.7031	-1729.70
0.2703,0.7297	-1734.39
0.3521,0.6479	-1741.13
0.3700,0.6300	-1735.33
0.3866,0.6134	-1740.16
0.4038,0.5962	-1746.09
0.3011,0.6989	-1727.16
0.2597,0.7403	-1726.86
0.3515,0.6485	-1737.46
0.3186,0.6814	-1737.50
0.3329,0.6671	-1739.40
0.3907,0.6093	-1742.56
0.2958,0.7042	-1734.04
0.2535,0.7465	-1722.88
0.3163,0.6837	-1729.85
0.3003,0.6997	-1736.45
0.3414,0.6586	-1734.70
0.3751,0.6249	-1736.16
0.2947,0.7053	-1734.08
0.2801,0.7199	-1731.91
0.3262,0.6738	-1738.09
0.3185,0.6815	-1732.94
0.3530,0.6470	-1737.49
0.3078,0.6922	-1732.96
0.3062,0.6938	-1743.61
0.3137,0.6863	-1737.63
0.2843,0.7157	-1728.05
0.2962,0.7038	-1735.76
0.3636,0.6364	-1741.69
0.3347,0.6653	-1736.63
0.3011,0.6989	-1738.95
0.3169,0.6831	-1731.40
0.2568,0.7432	-1728.08
0.2943,0.7057	-1728.84
0.3525,0.6475	-1738.09
0.3496,0.6504	-1740.53
0.2934,0.7066	-1727.97
0.3063,0.6937	-1741.15
0.2549,0.7451	-1738.92
0.2660,0.7340	-1727.61
0.3368,0.6632	-1733.25
0.3489,0.6511	-1738.04
0.2976,0.7024	-1736.56
0.2937,0.7063	-1730.60
0.3021,0.6979	-1725.50
0.2364,0.7636	-1728.56
0.3211,0.6789	-1735.20
0.3361,0.6639	-1735.95
0.3094,0.6906	-1736.16
0.2799,0.7201	-1733.80
0.3384,0.6616	-1734.64
0.2453,0.7547	-1732.27
0.3312,0.6688	-1731.70
0.3550,0.6450	-1738.13
0.2852,0.7148	-1737.23
0.3183,0.6817	-1745.89
0.3743,0.6257	-1737.66
0.2373,0.7627	-1731.97
0.3038,0.6962	-1734.66
0.3694,0.6306	-1748.13
0.2616,0.7384	-1730.93
0.3391,0.6609	-1735.32
0.3982,0.6018	-1741.95
0.2537,0.7463	-1728.27
0.3081,0.6919	-1733.76
0.3773,0.6227	-1740.81
0.2796,0.7204	-1730.98
0.3598,0.6402	-1741.11
0.3464,0.6536	-1734.21
0.2647,0.7353	-1727.67
0.2877,0.7123	-1731.63
0.3499,0.6501	-1734.34
0.2930,0.7070	-1730.61
0.3253,0.6747	-1728.63
0.3353,0.6647	-1735.94
0.3111,0.6889	-1732.14
0.2799,0.7201	-1745.15
0.4093,0.5907	-1742.46
0.3092,0.6908	-1735.36
0.3220,0.6780	-1731.48
0.3500,0.6500	-1740.53
0.3011,0.6989	-1735.58
0.2645,0.7355	-1729.72
0.4199,0.5801	-1740.46
0.3074,0.6926	-1737.83
0.3630,0.6370	-1737.75
0.3190,0.6810	-1725.36
0.2940,0.7060	-1739.35
0.2761,0.7239	-1730.16
0.3520,0.6480	-1739.30
0.3071,0.6929	-1739.48
0.3404,0.6596	-1736.66
0.2895,0.7105	-1735.17
0.3266,0.6734	-1733.02
0.3084,0.6916	-1733.76
0.3627,0.6373	-1737.74
0.2829,0.7171	-1733.65
0.2976,0.7024	-1746.01
0.3092,0.6908	-1732.95
0.3360,0.6640	-1735.27
0.3214,0.6786	-1732.21
0.3311,0.6689	-1741.54
0.2812,0.7188	-1726.23
0.3253,0.6747	-1737.38
0.3278,0.6722	-1735.92
0.2953,0.7047	-1736.67
0.2870,0.7130	-1738.03
0.3813,0.6187	-1744.79
0.2917,0.7083	-1735.96
0.3553,0.6447	-1742.31
0.3538,0.6462	-1734.50
0.2794,0.7206	-1728.15
0.2991,0.7009	-1736.50
0.3745,0.6255	-1744.33
0.2842,0.7158	-1734.52
0.3683,0.6317	-1740.09
0.3827,0.6173	-1745.26
0.2900,0.7100	-1737.83
0.3170,0.6830	-1740.61
0.3639,0.6361	-1740.57
0.2988,0.7012	-1734.80
0.3753,0.6247	-1741.27
0.3449,0.6551	-1745.06
0.3389,0.6611	-1731.97
0.3210,0.6790	-1735.20
0.3980,0.6020	-1744.01
0.3776,0.6224	-1741.31
0.3605,0.6395	-1733.66
0.3233,0.6767	-1735.19
0.3472,0.6528	-1741.81
0.2848,0.7152	-1735.41
0.3914,0.6086	-1741.25
0.3479,0.6521	-1732.38
0.3251,0.6749	-1733.73
0.3479,0.6521	-1738.66
0.3356,0.6644	-1738.00
0.3245,0.6755	-1733.73
0.3654,0.6346	-1738.93
0.3629,0.6371	-1736.06
0.3723,0.6277	-1741.74
0.3382,0.6618	-1733.29
0.2710,0.7290	-1742.26
0.3682,0.6318	-1739.55
0.3641,0.6359	-1738.34
0.3893,0.6107	-1738.47
0.3877,0.6123	-1743.40
0.3557,0.6443	-1736.36
0.2738,0.7262	-1735.14
0.3452,0.6548	-1736.73
0.3988,0.6012	-1739.92
0.3994,0.6006	-1745.67
0.3790,0.6210	-1741.84
0.3409,0.6591	-1736.67
0.2604,0.7396	-1724.74
0.3154,0.6846	-1738.35
0.3895,0.6105	-1744.78
0.4122,0.5878	-1746.16
0.4177,0.5823	-1745.58
0.3503,0.6497	-1739.29
0.2278,0.7722	-1720.95
0.2943,0.7057	-1728.84
0.4243,0.5757	-1743.32
0.3969,0.6031	-1741.06
0.4082,0.5918	-1745.01
0.3592,0.6408	-1739.37
0.2460,0.7540	-1718.76
0.2694,0.7306	-1720.49
0.3909,0.6091	-1740.79
0.3606,0.6394	-1735.96
0.3749,0.6251	-1743.31
0.3506,0.6494	-1735.60
0.2659,0.7341	-1723.55
0.3008,0.6992	-1733.06
0.3406,0.6594	-1737.99
0.3573,0.6427	-1738.76
0.3502,0.6498	-1737.44
0.3942,0.6058	-1743.94
0.2886,0.7114	-1721.68
0.3737,0.6263	-1741.24
0.3207,0.6793	-1737.46
0.3259,0.6741	-1733.74
0.3491,0.6509	-1738.04
0.3305,0.6695	-1737.33
0.3074,0.6926	-1732.96
0.3656,0.6344	-1734.53
0.3174,0.6826	-1741.35
0.3110,0.6890	-1732.94
0.3333,0.6667	-1739.40
0.3015,0.6985	-1738.92
0.3464,0.6536	-1743.73
0.3786,0.6214	-1739.35
0.3380,0.6620	-1737.99
0.2663,0.7337	-1730.64
0.3200,0.6800	-1734.45
0.3021,0.6979	-1734.71
0.3084,0.6916	-1735.38
0.3614,0.6386	-1736.56
0.3464,0.6536	-1734.84
0.2732,0.7268	-1736.15
0.3112,0.6888	-1730.55
0.2845,0.7155	-1725.28
0.3591,0.6409	-1737.64
0.3607,0.6393	-1740.54
0.3922,0.6078	-1744.79
0.3221,0.6779	-1730.73
0.2787,0.7213	-1723.41
0.3590,0.6410	-1739.95
0.3627,0.6373	-1739.43
0.3269,0.6731	-1743.86
0.3848,0.6152	-1743.37
0.3394,0.6606	-1733.33
0.3448,0.6552	-1735.44
0.3930,0.6070	-1739.58
0.3793,0.6207	-1738.89
0.2951,0.7049	-1735.80
0.3653,0.6347	-1739.48
0.3485,0.6515	-1741.17
0.3558,0.6442	-1739.93
0.3472,0.6528	-1737.39
0.3890,0.6110	-1744.78
0.3323,0.6677	-1731.74
0.3713,0.6287	-1744.36
0.3297,0.6703	-1737.34
0.3405,0.6595	-1739.31
0.3260,0.6740	-1741.73
0.3133,0.6867	-1733.71
0.3414,0.6586	-1734.70
0.3501,0.6499	-1739.29
0.3388,0.6612	-1733.98
0.3661,0.6339	-1736.75
0.3841,0.6159	-1737.22
0.3650,0.6350	-1734.49
0.2927,0.7073	-1731.50
0.3498,0.6502	-1736.19
0.3443,0.6557	-1740.58
0.2914,0.7086	-1727.98
0.3350,0.6650	-1737.31
0.3496,0.6504	-1737.43
0.2710,0.7290	-1729.40
0.2997,0.7003	-1730.53
0.3463,0.6537	-1739.92
0.2856,0.7144	-1739.95
0.3801,0.6199	-1742.35
0.3369,0.6631	-1733.93
0.2838,0.7162	-1732.69
0.3010,0.6990	-1738.11
0.3422,0.6578	-1740.61
0.3107,0.6893	-1730.55
0.3610,0.6390	-1734.26
0.2893,0.7107	-1727.09
0.3015,0.6985	-1733.89
0.2769,0.7231	-1730.13
0.3544,0.6456	-1738.12
0.3886,0.6114	-1741.60
0.3639,0.6361	-1738.90
0.3221,0.6779	-1738.17
0.3176,0.6824	-1739.05
0.3035,0.6965	-1735.50
0.3938,0.6062	-1741.78
0.3431,0.6569	-1730.20
0.4102,0.5898	-1746.14
0.3421,0.6579	-1734.07
0.3219,0.6781	-1735.94
0.3201,0.6799	-1734.45
0.4297,0.5703	-1744.81
0.3488,0.6512	-1733.05
0.3993,0.6007	-1741.59
0.3724,0.6276	-1738.61
0.3179,0.6821	-1732.93
0.3474,0.6526	-1741.81
0.3969,0.6031	-1743.57
0.3206,0.6794	-1729.20
0.3464,0.6536	-1737.38
0.3586,0.6414	-1738.20
0.3318,0.6682	-1733.12
0.3452,0.6548	-1737.37
0.3603,0.6397	-1738.82
0.3240,0.6760	-1735.19
0.3654,0.6346	-1731.76
0.3490,0.6510	-1737.42
0.3655,0.6345	-1740.59
0.3071,0.6929	-1733.78
0.3925,0.6075	-1738.24
0.2996,0.7004	-1727.99
0.3510,0.6490	-1736.84
0.3944,0.6056	-1741.80
0.4143,0.5857	-1748.61
0.3004,0.6996	-1732.22
0.3239,0.6761	-1732.99
0.3385,0.6615	-1740.00
0.3753,0.6247	-1743.82
0.3861,0.6139	-1737.35
0.4064,0.5936	-1743.83
0.2935,0.7065	-1734.12
0.3488,0.6512	-1737.42
0.3507,0.6493	-1736.83
0.3712,0.6288	-1745.95
0.3715,0.6285	-1744.89
0.4051,0.5949	-1743.02
0.3166,0.6834	-1746.01
0.3196,0.6804	-1726.90
0.3193,0.6807	-1736.73
0.3883,0.6117	-1740.68
0.3510,0.6490	-1740.53
0.3901,0.6099	-1742.55
0.2593,0.7407	-1731.08
0.3647,0.6353	-1738.91
0.3237,0.6763	-1741.09
0.3607,0.6393	-1734.82
0.3704,0.6296	-1740.13
0.3061,0.6939	-1732.98
0.2842,0.7158	-1740.98
0.3904,0.6096	-1742.11
0.3371,0.6629	-1742.72
0.4231,0.5769	-1744.80
0.4284,0.5716	-1744.75
0.2906,0.7094	-1727.09
0.2963,0.7037	-1721.91
0.4232,0.5768	-1744.18
0.3514,0.6486	-1735.62
0.4352,0.5648	-1749.02
0.3818,0.6182	-1743.34
0.2819,0.7181	-1730.90
0.2864,0.7136	-1728.02
0.3553,0.6447	-1734.56
0.4051,0.5949	-1742.25
0.4305,0.5695	-1746.25
0.3758,0.6242	-1739.76
0.2659,0.7341	-1737.77
0.3338,0.6662	-1740.08
0.3397,0.6603	-1743.97
0.4650,0.5350	-1747.30
0.3940,0.6060	-1742.22
0.3921,0.6079	-1743.04
0.3129,0.6871	-1736.08
0.3284,0.6716	-1737.35
0.3469,0.6531	-1735.49
0.4817,0.5183	-1748.54
0.3494,0.6506	-1741.16
0.3839,0.6161	-1741.46
0.2810,0.7190	-1727.17
0.3364,0.6636	-1741.39
0.3471,0.6529	-1733.60
0.4329,0.5671	-1746.06
0.3711,0.6289	-1741.20
0.3817,0.6183	-1743.34
0.2934,0.7066	-1732.36
0.3144,0.6856	-1745.40
0.3617,0.6383	-1738.28
0.4015,0.5985	-1744.49
0.3545,0.6455	-1742.32
0.3376,0.6624	-1738.66
0.2900,0.7100	-1736.05
0.3550,0.6450	-1741.71
0.3978,0.6022	-1743.59
0.4315,0.5685	-1746.84
0.4041,0.5959	-1747.65
0.3150,0.6850	-1728.26
0.2798,0.7202	-1734.75
0.3077,0.6923	-1739.45
0.3273,0.6727	-1737.36
0.4599,0.5401	-1747.09
0.3327,0.6673	-1735.23
0.3031,0.6969	-1728.85
0.3110,0.6890	-1732.94
0.3436,0.6564	-1739.94
0.3802,0.6198	-1741.86
0.4125,0.5875	-1741.21
0.3286,0.6714	-1736.63
0.3051,0.6949	-1732.17
0.2647,0.7353	-1723.58
