#isoforms=['ENSG00000101294.SE.1.A.up_ENSG00000101294.SE.1.A.SE1_ENSG00000101294.SE.1.A.dn','ENSG00000101294.SE.1.B.up_ENSG00000101294.SE.1.B.dn']	exon_lens=('ENSG00000101294.SE.1.A.up',99),('ENSG00000101294.SE.1.A.SE1',376),('ENSG00000101294.SE.1.A.dn',89),('ENSG00000101294.SE.1.B.up',99),('ENSG00000101294.SE.1.B.dn',89)	iters=5000	burn_in=500	lag=10	percent_accept=81.84	proposal_type=drift	counts=(0,0):498,(1,0):312,(1,1):317	assigned_counts=0:434,1:195	chrom=chr20	strand=+	mRNA_starts=31527484,31527484	mRNA_ends=31545035,31545035
sampled_psi	log_score
0.3551,0.6449	-4057.95
0.4495,0.5505	-4071.54
0.3449,0.6551	-4057.67
0.3390,0.6610	-4048.64
0.2865,0.7135	-4047.49
0.3730,0.6270	-4067.33
0.3834,0.6166	-4061.22
0.4254,0.5746	-4065.07
0.3269,0.6731	-4051.73
0.3513,0.6487	-4052.53
0.3654,0.6346	-4065.60
0.3674,0.6326	-4058.43
0.3715,0.6285	-4052.69
0.4072,0.5928	-4068.43
0.3135,0.6865	-4036.27
0.3616,0.6384	-4061.85
0.4263,0.5737	-4067.84
0.3966,0.6034	-4065.93
0.4096,0.5904	-4067.00
0.3816,0.6184	-4066.97
0.3784,0.6216	-4065.10
0.3970,0.6030	-4069.69
0.4271,0.5729	-4068.48
0.4140,0.5860	-4064.74
0.3498,0.6502	-4053.76
0.3843,0.6157	-4067.37
0.3649,0.6351	-4049.00
0.4243,0.5757	-4068.62
0.4043,0.5957	-4065.31
0.4290,0.5710	-4066.31
0.3234,0.6766	-4053.41
0.3656,0.6344	-4057.32
0.3693,0.6307	-4046.67
0.3685,0.6315	-4063.29
0.4110,0.5890	-4070.29
0.3313,0.6687	-4057.15
0.3611,0.6389	-4060.15
0.3604,0.6396	-4050.99
0.3227,0.6773	-4047.53
0.3354,0.6646	-4053.44
0.3973,0.6027	-4068.44
0.3429,0.6571	-4053.86
0.3953,0.6047	-4065.92
0.3757,0.6243	-4063.14
0.3645,0.6355	-4057.87
0.3829,0.6171	-4068.84
0.4076,0.5924	-4066.20
0.3616,0.6384	-4061.85
0.3958,0.6042	-4061.69
0.3763,0.6237	-4058.58
0.3479,0.6521	-4050.64
0.3711,0.6289	-4060.05
0.4246,0.5754	-4064.69
0.3839,0.6161	-4065.01
0.3895,0.6105	-4060.51
0.4029,0.5971	-4057.00
0.4292,0.5708	-4067.18
0.3449,0.6551	-4049.97
0.3848,0.6152	-4064.07
0.4159,0.5841	-4066.23
0.3456,0.6544	-4056.36
0.3407,0.6593	-4044.68
0.4345,0.5655	-4064.76
0.3198,0.6802	-4058.98
0.3761,0.6239	-4056.55
0.3412,0.6588	-4057.20
0.3455,0.6545	-4061.47
0.3151,0.6849	-4044.04
0.3814,0.6186	-4060.69
0.3361,0.6639	-4056.82
0.3675,0.6325	-4063.32
0.3452,0.6548	-4064.06
0.3933,0.6067	-4064.60
0.3619,0.6381	-4056.73
0.4043,0.5957	-4063.76
0.3527,0.6473	-4053.15
0.3385,0.6615	-4058.02
0.3759,0.6241	-4066.68
0.3693,0.6307	-4054.70
0.3889,0.6111	-4060.48
0.3716,0.6284	-4061.63
0.3808,0.6192	-4067.48
0.3572,0.6428	-4053.80
0.3497,0.6503	-4050.04
0.3336,0.6664	-4050.75
0.3958,0.6042	-4063.38
0.3925,0.6075	-4062.84
0.3416,0.6584	-4056.52
0.3466,0.6534	-4056.96
0.3646,0.6354	-4062.31
0.3079,0.6921	-4054.94
0.3811,0.6189	-4061.65
0.4136,0.5864	-4068.20
0.3246,0.6754	-4058.46
0.3682,0.6318	-4058.44
0.3907,0.6093	-4066.34
0.3790,0.6210	-4052.25
0.3853,0.6147	-4063.14
0.4131,0.5869	-4067.83
0.3544,0.6456	-4056.77
0.3920,0.6080	-4068.97
0.3569,0.6431	-4059.09
0.3574,0.6426	-4068.47
0.3444,0.6556	-4064.13
0.4191,0.5809	-4067.74
0.3540,0.6460	-4060.38
0.3894,0.6106	-4060.05
0.3457,0.6543	-4054.44
0.3596,0.6404	-4060.77
0.3566,0.6434	-4060.28
0.4279,0.5721	-4069.69
0.3404,0.6596	-4054.59
0.3427,0.6573	-4057.13
0.3424,0.6576	-4044.74
0.4076,0.5924	-4069.56
0.3466,0.6534	-4050.62
0.4474,0.5526	-4070.96
0.3467,0.6533	-4054.42
0.3500,0.6500	-4056.24
0.4011,0.5989	-4068.41
0.3868,0.6132	-4065.92
0.3878,0.6122	-4059.52
0.3945,0.6055	-4055.63
0.3001,0.6999	-4053.48
0.3295,0.6705	-4053.03
0.3570,0.6430	-4063.21
0.3514,0.6486	-4059.28
0.3877,0.6123	-4059.97
0.3754,0.6246	-4054.49
0.3417,0.6583	-4055.86
0.3540,0.6460	-4054.37
0.3542,0.6458	-4055.57
0.3561,0.6439	-4054.38
0.4167,0.5833	-4067.96
0.4054,0.5946	-4064.59
0.3966,0.6034	-4065.09
0.3345,0.6655	-4050.73
0.3722,0.6278	-4061.10
0.3639,0.6361	-4055.63
0.3728,0.6272	-4059.02
0.3779,0.6221	-4060.63
0.3858,0.6142	-4068.72
0.3539,0.6461	-4056.78
0.3469,0.6531	-4053.16
0.3633,0.6367	-4058.99
0.4016,0.5984	-4066.81
0.3918,0.6082	-4067.22
0.3538,0.6462	-4056.17
0.3470,0.6530	-4062.01
0.3254,0.6746	-4051.82
0.3367,0.6633	-4052.03
0.3892,0.6108	-4065.90
0.3853,0.6147	-4061.74
0.3538,0.6462	-4045.33
0.3559,0.6441	-4059.72
0.3524,0.6476	-4054.98
0.3587,0.6413	-4061.38
0.3583,0.6417	-4059.64
0.3875,0.6125	-4067.29
0.3299,0.6701	-4054.42
0.3476,0.6524	-4063.86
0.3416,0.6584	-4048.65
0.3924,0.6076	-4066.33
0.3789,0.6211	-4060.15
0.3612,0.6388	-4060.15
0.3455,0.6545	-4054.45
0.3831,0.6169	-4061.69
0.3576,0.6424	-4057.91
0.3629,0.6371	-4046.61
0.3953,0.6047	-4057.41
0.3936,0.6064	-4065.90
0.3156,0.6844	-4056.40
0.3491,0.6509	-4053.77
0.3669,0.6331	-4059.52
0.3339,0.6661	-4047.29
0.3974,0.6026	-4065.52
0.3722,0.6278	-4056.92
0.3361,0.6639	-4065.66
0.3523,0.6477	-4057.41
0.4167,0.5833	-4068.30
0.3371,0.6629	-4060.14
0.4371,0.5629	-4068.93
0.3616,0.6384	-4060.14
0.3641,0.6359	-4059.54
0.4181,0.5819	-4065.38
0.4115,0.5885	-4068.14
0.3401,0.6599	-4060.57
0.4059,0.5941	-4064.62
0.3737,0.6263	-4057.49
0.3667,0.6333	-4062.25
0.3909,0.6091	-4063.24
0.4099,0.5901	-4061.92
0.3368,0.6632	-4051.35
0.3981,0.6019	-4060.99
0.4162,0.5838	-4072.00
0.3852,0.6148	-4066.41
0.3706,0.6294	-4055.81
0.3344,0.6656	-4049.35
0.3367,0.6633	-4056.10
0.3746,0.6254	-4068.79
0.3800,0.6200	-4059.19
0.3635,0.6365	-4064.59
0.3594,0.6406	-4052.68
0.3745,0.6255	-4054.43
0.3579,0.6421	-4052.06
0.3760,0.6240	-4062.63
0.4346,0.5654	-4069.52
0.3580,0.6420	-4051.48
0.3471,0.6529	-4050.63
0.3863,0.6137	-4062.22
0.3788,0.6212	-4056.68
0.3394,0.6606	-4053.30
0.4143,0.5857	-4067.53
0.3749,0.6251	-4068.77
0.3824,0.6176	-4058.32
0.3828,0.6172	-4063.11
0.4091,0.5909	-4061.84
0.3150,0.6850	-4045.60
0.3610,0.6390	-4056.16
0.3473,0.6527	-4053.78
0.3453,0.6547	-4051.25
0.3484,0.6516	-4048.76
0.4180,0.5820	-4065.69
0.3367,0.6633	-4043.22
0.3554,0.6446	-4063.30
0.3341,0.6659	-4053.50
0.3605,0.6395	-4059.02
0.3709,0.6291	-4063.75
0.3888,0.6112	-4059.12
0.3935,0.6065	-4062.44
0.3541,0.6459	-4057.97
0.3375,0.6625	-4054.04
0.3983,0.6017	-4065.54
0.3483,0.6517	-4065.05
0.3624,0.6376	-4060.69
0.3861,0.6139	-4058.97
0.3654,0.6346	-4061.73
0.3256,0.6744	-4056.17
0.3726,0.6274	-4051.20
0.3371,0.6629	-4063.52
0.3909,0.6091	-4060.13
0.3865,0.6135	-4056.68
0.3689,0.6311	-4057.37
0.3501,0.6499	-4062.42
0.3699,0.6301	-4062.71
0.3179,0.6821	-4061.50
0.4100,0.5900	-4073.57
0.3673,0.6327	-4058.97
0.3569,0.6431	-4054.38
0.3444,0.6556	-4062.84
0.3631,0.6369	-4055.05
0.3653,0.6347	-4063.95
0.4028,0.5972	-4069.59
0.3950,0.6050	-4059.52
0.3684,0.6316	-4061.67
0.3884,0.6116	-4059.10
0.3645,0.6355	-4058.42
0.3599,0.6401	-4052.12
0.4340,0.5660	-4068.95
0.3503,0.6497	-4051.29
0.3424,0.6576	-4052.57
0.3669,0.6331	-4057.34
0.3680,0.6320	-4050.32
0.3249,0.6751	-4057.69
0.4394,0.5606	-4069.13
0.3481,0.6519	-4044.99
0.3482,0.6518	-4053.78
0.3634,0.6366	-4058.43
0.3672,0.6328	-4057.34
0.3680,0.6320	-4056.81
0.4320,0.5680	-4069.08
0.3192,0.6808	-4049.20
0.3560,0.6440	-4059.12
0.3662,0.6338	-4058.97
0.3930,0.6070	-4060.25
0.4148,0.5852	-4065.48
0.4118,0.5882	-4070.65
0.3613,0.6387	-4052.17
0.3881,0.6119	-4064.54
0.3571,0.6429	-4050.86
0.3774,0.6226	-4056.11
0.3736,0.6264	-4054.38
0.4144,0.5856	-4068.22
0.3574,0.6426	-4052.04
0.3650,0.6350	-4061.19
0.3200,0.6800	-4045.39
0.3766,0.6234	-4062.62
0.3451,0.6549	-4047.41
0.3659,0.6341	-4056.22
0.3722,0.6278	-4058.49
0.3508,0.6492	-4051.91
0.3339,0.6661	-4045.91
0.3825,0.6175	-4056.41
0.3613,0.6387	-4058.44
0.3447,0.6553	-4052.54
0.3509,0.6491	-4058.68
0.3702,0.6298	-4061.11
0.3179,0.6821	-4059.97
0.3766,0.6234	-4058.59
0.3626,0.6374	-4057.30
0.3450,0.6550	-4052.54
0.3635,0.6365	-4061.79
0.3768,0.6232	-4052.05
0.3239,0.6761	-4040.87
0.3502,0.6498	-4053.14
0.3146,0.6854	-4049.51
0.3705,0.6295	-4056.34
0.3840,0.6160	-4053.20
0.3848,0.6152	-4061.25
0.3504,0.6496	-4061.79
0.3756,0.6244	-4064.66
0.3359,0.6641	-4052.74
0.3516,0.6484	-4053.76
0.3239,0.6761	-4050.43
0.3626,0.6374	-4060.12
0.3197,0.6803	-4047.67
0.4201,0.5799	-4064.88
0.3963,0.6037	-4067.61
0.3198,0.6802	-4042.38
0.3312,0.6688	-4043.10
0.3600,0.6400	-4057.88
0.3507,0.6493	-4053.76
0.4160,0.5840	-4063.53
0.3845,0.6155	-4062.19
0.3348,0.6652	-4040.42
0.3386,0.6614	-4049.31
0.4077,0.5923	-4064.33
0.3766,0.6234	-4065.14
0.4052,0.5948	-4064.19
0.3620,0.6380	-4059.00
0.3566,0.6434	-4045.53
0.3557,0.6443	-4050.81
0.3860,0.6140	-4060.82
0.3583,0.6417	-4057.31
0.4022,0.5978	-4067.22
0.3761,0.6239	-4060.60
0.3538,0.6462	-4064.61
0.3368,0.6632	-4055.42
0.3640,0.6360	-4058.98
0.3706,0.6294	-4058.99
0.3638,0.6362	-4050.04
0.3760,0.6240	-4065.16
0.3144,0.6856	-4050.30
0.3418,0.6582	-4052.58
0.3937,0.6063	-4062.88
0.3638,0.6362	-4055.63
0.3333,0.6667	-4063.24
0.3760,0.6240	-4059.59
0.3293,0.6707	-4050.90
0.3529,0.6471	-4058.61
0.3504,0.6496	-4056.23
0.3853,0.6147	-4058.93
0.3267,0.6733	-4061.86
0.3667,0.6333	-4057.88
0.3144,0.6856	-4044.85
0.3513,0.6487	-4050.08
0.4035,0.5965	-4064.11
0.3477,0.6523	-4056.30
0.3398,0.6602	-4053.95
0.3568,0.6432	-4059.69
0.3584,0.6416	-4066.63
0.3455,0.6545	-4062.12
0.3784,0.6216	-4066.09
0.3673,0.6327	-4060.60
0.3495,0.6505	-4055.01
0.3587,0.6413	-4065.44
0.3484,0.6516	-4060.66
0.3521,0.6479	-4056.81
0.3711,0.6289	-4056.89
0.3559,0.6441	-4043.11
0.3777,0.6223	-4053.63
0.3420,0.6580	-4055.85
0.3749,0.6251	-4052.41
0.3733,0.6267	-4059.03
0.3542,0.6458	-4051.36
0.3527,0.6473	-4062.87
0.3979,0.6021	-4063.05
0.3526,0.6474	-4055.58
0.3851,0.6149	-4062.67
0.3342,0.6658	-4045.91
0.3549,0.6451	-4058.55
0.3673,0.6327	-4056.80
0.3529,0.6471	-4059.22
0.3582,0.6418	-4061.98
0.3703,0.6297	-4065.36
0.3551,0.6449	-4057.35
0.3319,0.6681	-4045.91
0.3900,0.6100	-4063.66
0.3497,0.6503	-4056.87
0.3783,0.6217	-4061.13
0.3639,0.6361	-4065.13
0.4634,0.5366	-4072.69
0.3407,0.6593	-4050.62
0.3872,0.6128	-4068.67
0.3709,0.6291	-4060.05
0.3256,0.6744	-4051.80
0.3908,0.6092	-4064.57
0.4459,0.5541	-4074.31
0.3621,0.6379	-4062.40
0.3709,0.6291	-4054.77
0.3616,0.6384	-4054.46
0.3353,0.6647	-4049.34
0.3510,0.6490	-4057.45
0.3738,0.6262	-4060.58
0.4210,0.5790	-4069.42
0.3618,0.6382	-4070.36
0.3536,0.6464	-4061.00
0.3717,0.6283	-4054.80
0.3328,0.6672	-4050.08
0.3451,0.6549	-4051.25
0.4256,0.5744	-4068.39
0.3160,0.6840	-4040.91
0.3301,0.6699	-4041.67
0.3736,0.6264	-4051.80
0.3558,0.6442	-4057.94
0.3092,0.6908	-4041.92
0.4138,0.5862	-4068.55
0.3378,0.6622	-4047.29
0.3640,0.6360	-4045.03
0.3750,0.6250	-4063.66
0.3488,0.6512	-4055.64
0.3298,0.6702	-4048.75
0.4153,0.5847	-4066.20
0.3503,0.6497	-4055.61
0.3799,0.6201	-4055.76
0.3553,0.6447	-4049.60
0.3415,0.6585	-4056.53
0.3202,0.6798	-4054.42
0.3733,0.6267	-4061.62
0.3565,0.6435	-4061.47
0.3512,0.6488	-4057.44
0.3535,0.6465	-4053.76
0.3861,0.6139	-4064.07
0.3393,0.6607	-4049.97
0.4158,0.5842	-4065.20
0.3725,0.6275	-4064.23
0.3597,0.6403	-4057.30
0.3625,0.6375	-4053.35
0.4018,0.5982	-4065.62
0.3582,0.6418	-4050.90
0.3837,0.6163	-4061.70
0.3703,0.6297	-4057.93
0.3590,0.6410	-4050.93
0.3467,0.6533	-4053.16
0.4265,0.5735	-4072.00
0.4155,0.5845	-4067.23
0.3630,0.6370	-4058.99
0.3431,0.6569	-4061.00
0.3487,0.6513	-4053.15
0.3878,0.6122	-4058.60
0.4116,0.5884	-4067.07
0.3244,0.6756	-4057.75
0.3958,0.6042	-4063.38
0.3623,0.6377	-4049.38
0.3609,0.6391	-4063.01
0.3724,0.6276	-4059.01
0.4316,0.5684	-4074.55
0.3567,0.6433	-4049.08
0.3919,0.6081	-4064.58
0.3894,0.6106	-4064.10
0.3941,0.6059	-4062.89
0.4004,0.5996	-4064.78
0.4018,0.5982	-4068.41
0.3863,0.6137	-4058.98
0.3484,0.6516	-4054.40
0.4195,0.5805	-4068.40
0.3567,0.6433	-4060.28
0.3668,0.6332	-4066.07
0.4287,0.5713	-4071.16
0.4019,0.5981	-4059.66
0.3577,0.6423	-4054.98
0.4205,0.5795	-4071.97
0.3792,0.6208	-4064.10
0.3394,0.6606	-4045.31
0.4084,0.5916	-4063.26
0.4053,0.5947	-4071.87
0.3773,0.6227	-4056.11
0.3598,0.6402	-4061.34
0.3717,0.6283	-4057.95
0.3747,0.6253	-4066.22
0.3528,0.6472	-4063.47
0.4053,0.5947	-4064.20
0.3601,0.6399	-4060.75
0.3687,0.6313	-4054.14
0.3849,0.6151	-4055.63
0.3441,0.6559	-4051.90
0.3638,0.6362	-4060.10
0.3865,0.6135	-4059.45
0.3325,0.6675	-4045.21
0.3508,0.6492	-4055.61
0.3785,0.6215	-4063.61
0.3164,0.6836	-4050.92
0.3385,0.6615	-4047.30
0.3707,0.6293	-4051.58
0.3683,0.6317	-4055.74
0.3911,0.6089	-4068.11
0.3822,0.6178	-4063.11
0.3287,0.6713	-4053.78
0.3136,0.6864	-4055.06
0.3774,0.6226	-4058.11
0.3734,0.6266	-4061.62
0.3593,0.6407	-4067.72
0.3922,0.6078	-4061.96
0.3205,0.6795	-4057.40
0.3194,0.6806	-4037.09
0.3724,0.6276	-4059.54
0.3888,0.6112	-4065.00
0.3669,0.6331	-4064.43
0.3519,0.6481	-4062.31
0.3106,0.6894	-4059.40
0.3723,0.6277	-4063.19
0.3889,0.6111	-4053.70
0.3920,0.6080	-4054.04
0.3535,0.6465	-4054.97
0.3532,0.6468	-4066.47
0.3960,0.6040	-4071.41
0.3488,0.6512	-4053.15
0.3961,0.6039	-4062.13
0.3834,0.6166	-4055.52
0.3720,0.6280	-4062.67
0.3641,0.6359	-4059.54
0.3614,0.6386	-4060.72
0.3469,0.6531	-4055.06
0.3944,0.6056	-4056.90
0.4008,0.5992	-4061.98
0.4258,0.5742	-4067.80
0.3600,0.6400	-4057.88
0.3661,0.6339	-4058.97
0.3631,0.6369	-4063.48
0.3925,0.6075	-4061.09
0.3724,0.6276	-4067.36
0.3501,0.6499	-4056.24
0.3787,0.6213	-4053.21
0.3792,0.6208	-4065.58
0.3281,0.6719	-4058.84
0.3711,0.6289	-4053.20
0.3706,0.6294	-4060.05
0.3803,0.6197	-4065.55
0.4166,0.5834	-4065.60
0.4064,0.5936	-4071.08
0.3273,0.6727	-4048.83
0.3619,0.6381	-4058.43
0.3228,0.6772	-4049.01
0.3619,0.6381	-4060.70
0.3917,0.6083	-4065.46
0.3325,0.6675	-4054.97
0.3344,0.6656	-4051.42
0.3621,0.6379	-4053.90
0.3639,0.6361	-4064.01
0.3655,0.6345	-4059.53
0.3956,0.6044	-4059.56
0.4089,0.5911	-4063.30
0.3508,0.6492	-4048.22
0.3548,0.6452	-4060.35
0.3722,0.6278	-4055.35
0.4146,0.5854	-4066.16
0.3828,0.6172	-4061.68
0.4564,0.5436	-4071.44
0.3499,0.6501	-4064.91
0.4431,0.5569	-4072.90
0.3629,0.6371	-4052.80
0.3557,0.6443	-4051.40
0.3804,0.6196	-4059.69
0.4341,0.5659	-4062.05
0.3638,0.6362	-4060.66
0.4250,0.5750	-4068.06
0.3403,0.6597	-4057.25
0.3436,0.6564	-4051.91
0.3701,0.6299	-4057.92
0.4114,0.5886	-4067.42
0.3313,0.6687	-4050.82
0.3967,0.6033	-4065.93
0.3494,0.6506	-4051.28
0.3590,0.6410	-4055.57
0.3535,0.6465	-4056.78
0.3878,0.6122	-4061.34
0.3759,0.6241	-4054.01
0.3605,0.6395	-4063.03
0.3846,0.6154	-4058.43
0.3039,0.6961	-4049.66
0.3393,0.6607	-4057.30
0.4559,0.5441	-4071.92
0.4372,0.5628	-4071.72
0.3600,0.6400	-4055.58
0.3647,0.6353	-4053.43
0.3479,0.6521	-4058.81
0.3489,0.6511	-4056.26
0.4099,0.5901	-4063.73
0.4212,0.5788	-4068.48
0.3853,0.6147	-4065.94
0.3562,0.6438	-4058.52
0.3411,0.6589	-4044.04
0.3624,0.6376	-4056.17
0.3803,0.6197	-4065.06
0.3889,0.6111	-4065.45
0.3546,0.6454	-4047.78
0.4080,0.5920	-4070.68
0.3375,0.6625	-4045.27
0.3745,0.6255	-4063.15
0.3450,0.6550	-4054.46
0.3928,0.6072	-4063.72
0.3475,0.6525	-4065.12
0.4119,0.5881	-4069.22
0.3619,0.6381	-4055.60
0.3615,0.6385	-4052.18
0.3486,0.6514	-4055.02
0.3761,0.6239	-4054.02
0.3618,0.6382	-4061.27
0.3735,0.6265	-4058.51
0.3514,0.6486	-4051.31
0.3697,0.6303	-4057.38
0.3744,0.6256	-4061.10
0.3655,0.6345	-4065.59
0.3426,0.6574	-4055.17
0.3441,0.6559	-4051.90
0.3773,0.6227	-4059.61
0.3281,0.6719	-4060.99
0.4042,0.5958	-4064.92
0.3503,0.6497	-4064.88
0.3364,0.6636	-4050.68
0.3423,0.6577	-4058.45
0.3515,0.6485	-4058.66
0.3278,0.6722	-4045.22
0.3694,0.6306	-4062.73
0.4180,0.5820	-4064.37
0.3773,0.6227	-4059.61
0.3501,0.6499	-4057.47
0.4096,0.5904	-4062.25
0.3715,0.6285	-4063.21
0.4191,0.5809	-4064.15
0.3940,0.6060	-4062.89
0.3744,0.6256	-4059.05
0.3820,0.6180	-4061.67
0.3466,0.6534	-4055.06
0.3794,0.6206	-4062.62
0.3757,0.6243	-4068.72
0.3830,0.6170	-4071.22
0.3845,0.6155	-4062.66
0.4132,0.5868	-4069.94
0.3437,0.6563	-4060.31
0.4037,0.5963	-4068.80
0.3513,0.6487	-4058.67
0.3481,0.6519	-4053.78
0.3982,0.6018	-4065.13
0.4103,0.5897	-4069.93
0.3513,0.6487	-4062.96
0.3564,0.6436	-4057.34
0.3310,0.6690	-4042.39
0.3782,0.6218	-4061.62
0.3673,0.6327	-4056.25
0.3640,0.6360	-4058.98
0.4140,0.5860	-4071.68
0.3344,0.6656	-4050.04
0.3369,0.6631	-4052.70
0.3811,0.6189	-4067.47
0.3784,0.6216	-4058.15
0.3624,0.6376	-4061.25
0.4230,0.5770	-4065.46
0.3490,0.6510	-4040.06
0.3842,0.6158	-4058.40
0.4086,0.5914	-4066.97
0.3055,0.6945	-4041.28
0.3576,0.6424	-4049.12
0.4044,0.5956	-4061.83
0.4008,0.5992	-4060.37
0.3608,0.6392	-4048.15
0.3938,0.6062	-4062.45
0.3315,0.6685	-4057.83
0.3941,0.6059	-4067.20
0.3553,0.6447	-4060.93
0.4048,0.5952	-4068.42
0.3494,0.6506	-4062.47
0.3563,0.6437	-4058.52
0.3274,0.6726	-4050.99
0.4030,0.5970	-4065.66
0.3657,0.6343	-4059.52
0.3950,0.6050	-4063.35
0.3586,0.6414	-4060.22
0.3717,0.6283	-4062.15
0.3348,0.6652	-4057.58
0.3750,0.6250	-4070.81
0.3783,0.6217	-4060.13
0.4095,0.5905	-4063.71
0.3390,0.6610	-4054.65
0.3687,0.6313	-4063.28
0.3319,0.6681	-4057.10
0.4052,0.5948	-4061.89
0.3793,0.6207	-4059.66
0.3773,0.6227	-4060.62
0.3466,0.6534	-4049.99
0.3296,0.6704	-4044.50
0.3590,0.6410	-4056.73
0.3940,0.6060	-4059.44
0.4218,0.5782	-4066.30
0.3987,0.6013	-4065.55
0.3734,0.6266	-4061.10
0.3319,0.6681	-4053.60
0.3271,0.6729	-4048.11
0.4201,0.5799	-4064.24
0.4450,0.5550	-4072.31
0.3961,0.6039	-4063.39
0.3871,0.6129	-4068.22
0.3741,0.6259	-4059.56
0.3700,0.6300	-4062.71
0.4394,0.5606	-4073.03
0.4223,0.5777	-4069.15
0.4052,0.5948	-4059.97
0.3832,0.6168	-4054.55
0.3566,0.6434	-4061.47
0.3737,0.6263	-4061.62
0.4171,0.5829	-4070.65
0.3673,0.6327	-4054.08
0.3836,0.6164	-4063.59
0.3408,0.6592	-4058.54
0.3806,0.6194	-4067.49
0.3920,0.6080	-4063.70
0.4153,0.5847	-4064.15
0.3860,0.6140	-4070.10
0.3631,0.6369	-4050.56
0.3545,0.6455	-4056.77
0.3758,0.6242	-4060.09
0.3588,0.6412	-4056.15
0.3893,0.6107	-4065.90
0.3830,0.6170	-4057.40
0.3521,0.6479	-4054.98
0.3524,0.6476	-4048.28
0.4022,0.5978	-4064.84
0.3600,0.6400	-4066.51
0.4322,0.5678	-4069.09
0.3272,0.6728	-4060.37
0.2973,0.7027	-4039.25
0.3578,0.6422	-4061.41
0.4115,0.5885	-4061.34
0.3949,0.6051	-4065.06
0.4036,0.5964	-4065.29
0.3509,0.6491	-4056.84
0.3426,0.6574	-4053.22
0.3183,0.6817	-4040.12
0.4033,0.5967	-4063.32
0.4183,0.5817	-4062.42
0.3861,0.6139	-4063.61
0.3200,0.6800	-4055.19
0.3505,0.6495	-4056.23
0.3514,0.6486	-4056.82
0.3821,0.6179	-4067.44
0.4315,0.5685	-4067.94
0.3529,0.6471	-4057.40
0.3542,0.6458	-4058.57
0.3314,0.6686	-4048.72
0.3879,0.6121	-4056.79
0.3880,0.6120	-4066.36
0.4074,0.5926	-4066.19
0.3432,0.6568	-4044.12
0.3898,0.6102	-4064.11
0.3350,0.6650	-4071.97
0.3743,0.6257	-4056.48
0.3164,0.6836	-4044.76
0.4042,0.5958	-4066.09
0.3411,0.6589	-4045.35
0.3735,0.6265	-4063.69
0.3513,0.6487	-4056.83
0.3932,0.6068	-4055.92
0.3529,0.6471	-4052.55
0.3964,0.6036	-4068.03
0.3453,0.6547	-4042.30
0.4294,0.5706	-4071.18
0.3430,0.6570	-4050.61
0.3923,0.6077	-4066.77
0.3706,0.6294	-4063.76
0.3688,0.6312	-4058.44
0.3521,0.6479	-4057.42
0.3892,0.6108	-4067.70
0.3494,0.6506	-4058.74
0.4153,0.5847	-4065.86
0.3592,0.6408	-4054.41
0.3605,0.6395	-4064.18
0.3615,0.6385	-4051.61
0.4265,0.5735	-4069.63
0.3626,0.6374	-4056.17
0.3581,0.6419	-4065.49
0.4008,0.5992	-4066.40
0.3663,0.6337	-4055.14
0.3513,0.6487	-4048.85
0.4106,0.5894	-4063.78
0.3497,0.6503	-4058.11
0.3728,0.6272	-4065.78
0.3013,0.6987	-4040.70
0.3509,0.6491	-4043.92
0.3871,0.6129	-4064.08
0.3657,0.6343	-4058.42
0.3725,0.6275	-4060.06
0.3412,0.6588	-4053.91
0.3404,0.6596	-4057.24
0.3342,0.6658	-4055.56
0.4001,0.5999	-4061.53
0.3933,0.6067	-4071.10
0.3657,0.6343	-4065.03
0.3655,0.6345	-4052.91
0.3316,0.6684	-4059.22
0.3096,0.6904	-4043.50
0.3685,0.6315	-4062.75
0.3992,0.6008	-4061.06
0.3634,0.6366	-4053.38
0.3796,0.6204	-4060.16
0.3494,0.6506	-4045.68
0.3152,0.6848	-4037.05
0.3714,0.6286	-4060.58
0.3797,0.6203	-4060.16
0.3513,0.6487	-4046.40
0.3514,0.6486	-4065.40
0.3487,0.6513	-4053.15
0.3484,0.6516	-4050.64
0.3836,0.6164	-4059.80
0.3638,0.6362	-4061.22
0.3164,0.6836	-4040.91
0.3642,0.6358	-4066.22
0.3544,0.6456	-4053.77
0.3688,0.6312	-4057.37
0.3919,0.6081	-4057.55
0.3362,0.6638	-4054.09
0.3658,0.6342	-4053.47
0.3388,0.6612	-4054.65
0.3708,0.6292	-4054.24
0.3608,0.6392	-4053.87
0.3984,0.6016	-4058.54
0.3444,0.6556	-4058.98
0.3821,0.6179	-4058.79
0.3573,0.6427	-4057.91
0.3562,0.6438	-4054.38
0.3655,0.6345	-4065.59
0.3977,0.6023	-4063.04
0.3570,0.6430	-4054.97
0.3692,0.6308	-4054.70
0.3953,0.6047	-4059.11
0.3982,0.6018	-4065.54
0.3393,0.6607	-4048.64
0.4263,0.5737	-4069.62
0.3777,0.6223	-4066.11
0.3513,0.6487	-4055.60
0.3911,0.6089	-4064.57
0.3723,0.6277	-4052.22
0.3321,0.6679	-4044.51
0.4435,0.5565	-4070.42
0.3473,0.6527	-4058.20
0.3417,0.6583	-4053.24
