#isoforms=['ENSG00000110080.SE.2.A.up_ENSG00000110080.SE.2.A.SE1_ENSG00000110080.SE.2.A.dn','ENSG00000110080.SE.2.B.up_ENSG00000110080.SE.2.B.dn']	exon_lens=('ENSG00000110080.SE.2.A.up',61),('ENSG00000110080.SE.2.A.SE1',96),('ENSG00000110080.SE.2.A.dn',190),('ENSG00000110080.SE.2.B.up',61),('ENSG00000110080.SE.2.B.dn',190)	iters=5000	burn_in=500	lag=10	percent_accept=93.14	proposal_type=drift	counts=(0,0):2053,(0,1):2,(1,0):1492,(1,1):1120	assigned_counts=0:2595,1:19	chrom=chr11	strand=+	mRNA_starts=126407574,126407574	mRNA_ends=126408496,126408496
sampled_psi	log_score
0.9901,0.0099	-14501.76
0.9879,0.0121	-14519.70
0.9894,0.0106	-14547.19
0.9910,0.0090	-14483.04
0.9868,0.0132	-14528.36
0.9891,0.0109	-14470.30
0.9893,0.0107	-14483.70
0.9893,0.0107	-14506.33
0.9880,0.0120	-14497.66
0.9890,0.0110	-14488.35
0.9888,0.0112	-14506.36
0.9872,0.0128	-14537.08
0.9884,0.0116	-14488.63
0.9883,0.0117	-14484.23
0.9885,0.0115	-14488.58
0.9902,0.0098	-14474.05
0.9887,0.0113	-14506.36
0.9889,0.0111	-14515.33
0.9909,0.0091	-14487.75
0.9850,0.0150	-14520.09
0.9888,0.0112	-14506.35
0.9922,0.0078	-14487.67
0.9884,0.0116	-14501.95
0.9899,0.0101	-14483.42
0.9913,0.0087	-14487.69
0.9852,0.0148	-14520.03
0.9881,0.0119	-14484.35
0.9913,0.0087	-14468.76
0.9871,0.0129	-14524.04
0.9926,0.0074	-14473.02
0.9927,0.0073	-14463.15
0.9883,0.0117	-14506.42
0.9855,0.0145	-14511.50
0.9912,0.0088	-14468.78
0.9885,0.0115	-14493.03
0.9915,0.0085	-14478.16
0.9916,0.0084	-14497.20
0.9905,0.0095	-14492.49
0.9837,0.0163	-14536.92
0.9929,0.0071	-14472.94
0.9889,0.0111	-14515.33
0.9927,0.0073	-14463.15
0.9909,0.0091	-14497.13
0.9914,0.0086	-14463.91
0.9836,0.0164	-14528.76
0.9921,0.0079	-14458.64
0.9903,0.0097	-14474.04
0.9926,0.0074	-14487.70
0.9891,0.0109	-14528.86
0.9908,0.0092	-14464.39
0.9830,0.0170	-14492.39
0.9907,0.0093	-14478.44
0.9878,0.0122	-14484.54
0.9945,0.0055	-14467.73
0.9866,0.0134	-14541.24
0.9906,0.0094	-14506.44
0.9839,0.0161	-14499.91
0.9888,0.0112	-14488.44
0.9850,0.0150	-14545.18
0.9937,0.0063	-14452.63
0.9876,0.0124	-14502.18
0.9905,0.0095	-14473.89
0.9875,0.0125	-14497.84
0.9890,0.0110	-14488.34
0.9881,0.0119	-14484.36
0.9946,0.0054	-14457.30
0.9869,0.0131	-14519.72
0.9908,0.0092	-14492.44
0.9880,0.0120	-14471.23
0.9911,0.0089	-14478.31
0.9891,0.0109	-14492.80
0.9946,0.0054	-14452.09
0.9834,0.0166	-14528.81
0.9918,0.0082	-14492.45
0.9868,0.0132	-14511.10
0.9895,0.0105	-14488.14
0.9884,0.0116	-14510.85
0.9938,0.0062	-14447.42
0.9805,0.0195	-14533.86
0.9913,0.0087	-14468.72
0.9855,0.0145	-14498.86
0.9909,0.0091	-14483.05
0.9901,0.0099	-14501.76
0.9935,0.0065	-14457.77
0.9829,0.0171	-14520.86
0.9898,0.0102	-14478.90
0.9895,0.0105	-14474.49
0.9918,0.0082	-14487.66
0.9900,0.0100	-14497.17
0.9935,0.0065	-14457.77
0.9834,0.0166	-14541.04
0.9923,0.0077	-14482.81
0.9888,0.0112	-14497.39
0.9937,0.0063	-14472.85
0.9907,0.0093	-14469.09
0.9934,0.0066	-14472.87
0.9811,0.0189	-14541.53
0.9932,0.0068	-14462.93
0.9904,0.0096	-14487.87
0.9942,0.0058	-14462.58
0.9911,0.0089	-14450.03
0.9946,0.0054	-14446.86
0.9850,0.0150	-14520.07
0.9939,0.0061	-14447.37
0.9908,0.0092	-14487.78
0.9926,0.0074	-14468.09
0.9918,0.0082	-14463.66
0.9939,0.0061	-14477.94
0.9883,0.0117	-14488.66
0.9945,0.0055	-14457.35
0.9899,0.0101	-14474.25
0.9930,0.0070	-14463.01
0.9906,0.0094	-14501.78
0.9935,0.0065	-14457.78
0.9901,0.0099	-14515.58
0.9932,0.0068	-14462.94
0.9887,0.0113	-14483.99
0.9931,0.0069	-14457.99
0.9903,0.0097	-14483.27
0.9938,0.0062	-14462.70
0.9881,0.0119	-14506.45
0.9922,0.0078	-14482.82
0.9869,0.0131	-14476.54
0.9948,0.0052	-14462.50
0.9912,0.0088	-14473.53
0.9950,0.0050	-14446.62
0.9905,0.0095	-14501.78
0.9939,0.0061	-14447.35
0.9867,0.0133	-14502.54
0.9957,0.0043	-14440.79
0.9921,0.0079	-14482.83
0.9960,0.0040	-14479.23
0.9886,0.0114	-14510.84
0.9941,0.0059	-14462.62
0.9897,0.0103	-14520.03
0.9964,0.0036	-14446.01
0.9899,0.0101	-14492.59
0.9962,0.0038	-14434.95
0.9886,0.0114	-14506.37
0.9936,0.0064	-14477.89
0.9881,0.0119	-14488.78
0.9967,0.0033	-14463.13
0.9869,0.0131	-14506.75
0.9961,0.0039	-14446.07
0.9887,0.0113	-14488.48
0.9925,0.0075	-14468.13
0.9913,0.0087	-14492.43
0.9967,0.0033	-14463.07
0.9882,0.0118	-14515.29
0.9968,0.0032	-14445.95
0.9901,0.0099	-14478.75
0.9936,0.0064	-14487.99
0.9914,0.0086	-14473.45
0.9957,0.0043	-14451.69
0.9884,0.0116	-14501.95
0.9966,0.0034	-14462.97
0.9899,0.0101	-14483.43
0.9926,0.0074	-14497.50
0.9913,0.0087	-14468.73
0.9958,0.0042	-14446.21
0.9907,0.0093	-14497.13
0.9964,0.0036	-14457.24
0.9902,0.0098	-14487.91
0.9938,0.0062	-14457.64
0.9927,0.0073	-14463.18
0.9959,0.0041	-14446.16
0.9909,0.0091	-14473.70
0.9967,0.0033	-14428.79
0.9904,0.0096	-14478.57
0.9930,0.0070	-14507.56
0.9942,0.0058	-14442.01
0.9963,0.0037	-14451.62
0.9915,0.0085	-14473.39
0.9970,0.0030	-14451.77
0.9911,0.0089	-14464.18
0.9938,0.0062	-14488.09
0.9945,0.0055	-14488.55
0.9960,0.0040	-14446.11
0.9922,0.0078	-14473.11
0.9967,0.0033	-14440.26
0.9903,0.0097	-14469.41
0.9938,0.0062	-14503.27
0.9943,0.0057	-14478.03
0.9954,0.0046	-14451.77
0.9929,0.0071	-14468.02
0.9959,0.0041	-14462.63
0.9905,0.0095	-14478.53
0.9912,0.0088	-14473.54
0.9932,0.0068	-14467.91
0.9953,0.0047	-14446.44
0.9925,0.0075	-14473.03
0.9955,0.0045	-14462.53
0.9913,0.0087	-14520.84
0.9909,0.0091	-14478.38
0.9934,0.0066	-14502.94
0.9959,0.0041	-14457.14
0.9908,0.0092	-14487.77
0.9953,0.0047	-14467.85
0.9914,0.0086	-14468.72
0.9896,0.0104	-14483.56
0.9931,0.0069	-14457.97
0.9961,0.0039	-14451.63
0.9885,0.0115	-14528.65
0.9954,0.0046	-14473.29
0.9916,0.0084	-14463.78
0.9895,0.0105	-14492.68
0.9929,0.0071	-14492.72
0.9952,0.0048	-14446.52
0.9875,0.0125	-14471.60
0.9947,0.0053	-14467.74
0.9915,0.0085	-14487.67
0.9920,0.0080	-14502.13
0.9910,0.0090	-14464.20
0.9960,0.0040	-14435.11
0.9879,0.0121	-14484.49
0.9938,0.0062	-14467.77
0.9931,0.0069	-14487.82
0.9924,0.0076	-14463.30
0.9937,0.0063	-14467.79
0.9962,0.0038	-14446.04
0.9900,0.0100	-14520.15
0.9913,0.0087	-14468.76
0.9941,0.0059	-14467.73
0.9921,0.0079	-14487.66
0.9943,0.0057	-14472.89
0.9967,0.0033	-14457.40
0.9881,0.0119	-14506.45
0.9922,0.0078	-14453.74
0.9945,0.0055	-14452.15
0.9906,0.0094	-14492.47
0.9940,0.0060	-14457.54
0.9957,0.0043	-14462.58
0.9864,0.0136	-14532.64
0.9932,0.0068	-14467.89
0.9940,0.0060	-14467.75
0.9909,0.0091	-14478.39
0.9948,0.0052	-14451.98
0.9953,0.0047	-14462.50
0.9874,0.0126	-14480.47
0.9934,0.0066	-14462.82
0.9943,0.0057	-14478.06
0.9915,0.0085	-14492.43
0.9945,0.0055	-14446.94
0.9951,0.0049	-14467.80
0.9874,0.0126	-14484.82
0.9938,0.0062	-14483.00
0.9947,0.0053	-14436.33
0.9910,0.0090	-14483.03
0.9944,0.0056	-14488.45
0.9956,0.0044	-14451.70
0.9888,0.0112	-14483.93
0.9941,0.0059	-14462.62
0.9923,0.0077	-14463.35
0.9928,0.0072	-14468.03
0.9949,0.0051	-14457.22
0.9951,0.0049	-14467.81
0.9916,0.0084	-14492.44
0.9957,0.0043	-14440.80
0.9917,0.0083	-14487.66
0.9927,0.0073	-14443.51
0.9945,0.0055	-14446.94
0.9942,0.0058	-14436.87
0.9897,0.0103	-14492.64
0.9956,0.0044	-14462.55
0.9910,0.0090	-14473.64
0.9928,0.0072	-14453.22
0.9951,0.0049	-14446.53
0.9940,0.0060	-14452.39
0.9880,0.0120	-14484.42
0.9962,0.0038	-14440.49
0.9913,0.0087	-14478.21
0.9928,0.0072	-14527.09
0.9941,0.0059	-14477.98
0.9925,0.0075	-14477.92
0.9902,0.0098	-14506.37
0.9952,0.0048	-14446.47
0.9917,0.0083	-14516.39
0.9923,0.0077	-14473.10
0.9936,0.0064	-14477.89
0.9917,0.0083	-14487.66
0.9900,0.0100	-14501.76
0.9955,0.0045	-14451.74
0.9914,0.0086	-14468.67
0.9916,0.0084	-14478.12
0.9933,0.0067	-14482.87
0.9903,0.0097	-14474.00
0.9879,0.0121	-14488.90
0.9960,0.0040	-14462.69
0.9905,0.0095	-14497.13
0.9925,0.0075	-14477.93
0.9928,0.0072	-14477.89
0.9872,0.0128	-14489.27
0.9891,0.0109	-14483.80
0.9959,0.0041	-14451.65
0.9915,0.0085	-14516.22
0.9924,0.0076	-14468.19
0.9931,0.0069	-14497.75
0.9860,0.0140	-14511.33
0.9869,0.0131	-14511.09
0.9950,0.0050	-14462.49
0.9927,0.0073	-14468.09
0.9931,0.0069	-14448.04
0.9936,0.0064	-14457.72
0.9842,0.0158	-14540.99
0.9844,0.0156	-14520.26
0.9945,0.0055	-14467.73
0.9923,0.0077	-14463.40
0.9939,0.0061	-14457.59
0.9925,0.0075	-14448.64
0.9862,0.0138	-14489.95
0.9858,0.0142	-14511.41
0.9940,0.0060	-14452.40
0.9916,0.0084	-14473.34
0.9945,0.0055	-14488.48
0.9915,0.0085	-14501.95
0.9866,0.0134	-14519.75
0.9846,0.0154	-14491.12
0.9948,0.0052	-14462.50
0.9917,0.0083	-14487.66
0.9953,0.0047	-14467.85
0.9928,0.0072	-14477.89
0.9850,0.0150	-14528.44
0.9857,0.0143	-14519.91
0.9944,0.0056	-14472.90
0.9902,0.0098	-14474.04
0.9960,0.0040	-14440.59
0.9907,0.0093	-14473.77
0.9848,0.0152	-14532.65
0.9850,0.0150	-14507.52
0.9932,0.0068	-14482.86
0.9872,0.0128	-14493.65
0.9952,0.0048	-14451.82
0.9891,0.0109	-14483.78
0.9858,0.0142	-14490.24
0.9846,0.0154	-14524.35
0.9941,0.0059	-14478.00
0.9870,0.0130	-14485.09
0.9952,0.0048	-14467.84
0.9909,0.0091	-14473.66
0.9883,0.0117	-14510.86
0.9844,0.0156	-14536.84
0.9936,0.0064	-14467.82
0.9847,0.0153	-14478.56
0.9953,0.0047	-14446.43
0.9926,0.0074	-14487.71
0.9886,0.0114	-14501.92
0.9861,0.0139	-14515.57
0.9927,0.0073	-14468.08
0.9828,0.0172	-14516.86
0.9946,0.0054	-14446.87
0.9924,0.0076	-14482.81
0.9875,0.0125	-14484.75
0.9871,0.0129	-14519.71
0.9946,0.0054	-14462.52
0.9814,0.0186	-14529.54
0.9943,0.0057	-14467.73
0.9939,0.0061	-14488.12
0.9886,0.0114	-14506.38
0.9885,0.0115	-14488.57
0.9951,0.0049	-14462.49
0.9822,0.0178	-14533.22
0.9933,0.0067	-14462.87
0.9944,0.0056	-14472.90
0.9854,0.0146	-14494.73
0.9896,0.0104	-14519.99
0.9959,0.0041	-14451.65
0.9859,0.0141	-14519.86
0.9921,0.0079	-14487.66
0.9949,0.0051	-14467.76
0.9863,0.0137	-14494.16
0.9898,0.0102	-14510.91
0.9952,0.0048	-14483.79
0.9868,0.0132	-14511.09
0.9943,0.0057	-14462.56
0.9952,0.0048	-14457.16
0.9781,0.0219	-14554.10
0.9907,0.0093	-14487.78
0.9948,0.0052	-14467.75
0.9891,0.0109	-14474.77
0.9938,0.0062	-14488.10
0.9960,0.0040	-14457.15
0.9835,0.0165	-14541.04
0.9920,0.0080	-14458.73
0.9946,0.0054	-14472.95
0.9883,0.0117	-14519.73
0.9931,0.0069	-14492.79
0.9949,0.0051	-14478.29
0.9879,0.0121	-14515.30
0.9919,0.0081	-14497.26
0.9947,0.0053	-14452.04
0.9906,0.0094	-14525.05
0.9930,0.0070	-14467.97
0.9953,0.0047	-14489.31
0.9882,0.0118	-14479.89
0.9925,0.0075	-14453.53
0.9946,0.0054	-14483.37
0.9924,0.0076	-14473.05
0.9926,0.0074	-14473.01
0.9943,0.0057	-14483.20
0.9881,0.0119	-14515.29
0.9922,0.0078	-14507.06
0.9947,0.0053	-14446.78
0.9926,0.0074	-14492.60
0.9932,0.0068	-14487.84
0.9936,0.0064	-14472.85
0.9870,0.0130	-14511.06
0.9913,0.0087	-14506.62
0.9945,0.0055	-14472.93
0.9924,0.0076	-14473.06
0.9946,0.0054	-14462.52
0.9939,0.0061	-14488.14
0.9882,0.0118	-14497.58
0.9891,0.0109	-14497.33
0.9941,0.0059	-14477.99
0.9932,0.0068	-14472.89
0.9931,0.0069	-14472.90
0.9943,0.0057	-14457.41
0.9876,0.0124	-14475.88
0.9887,0.0113	-14497.43
0.9942,0.0058	-14457.43
0.9923,0.0077	-14477.96
0.9925,0.0075	-14487.69
0.9952,0.0048	-14467.83
0.9897,0.0103	-14501.77
0.9868,0.0132	-14515.41
0.9941,0.0059	-14462.62
0.9939,0.0061	-14483.05
0.9938,0.0062	-14472.85
0.9954,0.0046	-14435.59
0.9926,0.0074	-14458.28
0.9902,0.0098	-14487.91
0.9936,0.0064	-14482.95
0.9931,0.0069	-14467.93
0.9941,0.0059	-14462.61
0.9959,0.0041	-14457.14
0.9918,0.0082	-14502.05
0.9918,0.0082	-14478.06
0.9942,0.0058	-14457.46
0.9928,0.0072	-14477.89
0.9934,0.0066	-14487.92
0.9956,0.0044	-14440.83
0.9904,0.0096	-14483.21
0.9910,0.0090	-14497.14
0.9926,0.0074	-14463.22
0.9938,0.0062	-14457.61
0.9950,0.0050	-14473.09
0.9949,0.0051	-14446.67
0.9896,0.0104	-14515.43
0.9920,0.0080	-14458.70
0.9928,0.0072	-14463.12
0.9923,0.0077	-14473.09
0.9950,0.0050	-14462.49
0.9953,0.0047	-14457.14
0.9886,0.0114	-14506.37
0.9930,0.0070	-14507.62
0.9928,0.0072	-14472.95
0.9924,0.0076	-14463.34
0.9943,0.0057	-14488.35
0.9958,0.0042	-14457.13
0.9885,0.0115	-14555.42
0.9940,0.0060	-14462.64
0.9908,0.0092	-14515.86
0.9938,0.0062	-14462.69
0.9937,0.0063	-14467.79
0.9955,0.0045	-14478.71
0.9869,0.0131	-14502.44
0.9943,0.0057	-14457.41
0.9879,0.0121	-14466.85
0.9946,0.0054	-14452.09
0.9943,0.0057	-14457.40
0.9964,0.0036	-14451.63
0.9883,0.0117	-14488.70
0.9956,0.0044	-14457.13
0.9883,0.0117	-14484.25
0.9951,0.0049	-14446.54
0.9937,0.0063	-14447.55
0.9963,0.0037	-14446.01
0.9888,0.0112	-14528.77
0.9947,0.0053	-14467.74
0.9886,0.0114	-14497.47
0.9952,0.0048	-14451.83
0.9940,0.0060	-14483.06
0.9955,0.0045	-14467.93
0.9911,0.0089	-14497.15
0.9939,0.0061	-14462.66
0.9870,0.0130	-14515.38
0.9958,0.0042	-14462.59
0.9926,0.0074	-14458.29
0.9950,0.0050	-14467.79
0.9933,0.0067	-14487.87
0.9933,0.0067	-14492.88
0.9892,0.0108	-14506.33
0.9960,0.0040	-14446.13
0.9936,0.0064	-14472.85
0.9950,0.0050	-14467.78
0.9942,0.0058	-14467.73
0.9938,0.0062	-14477.92
0.9885,0.0115	-14484.14
0.9967,0.0033	-14440.25
0.9938,0.0062	-14472.85
0.9946,0.0054	-14457.29
0.9942,0.0058	-14483.18
0.9951,0.0049	-14457.18
0.9876,0.0124	-14462.79
0.9970,0.0030	-14440.14
0.9948,0.0052	-14457.24
0.9940,0.0060	-14457.51
0.9953,0.0047	-14478.58
0.9949,0.0051	-14446.69
0.9892,0.0108	-14506.33
0.9975,0.0025	-14440.07
0.9948,0.0052	-14473.02
0.9946,0.0054	-14478.16
0.9961,0.0039	-14451.63
0.9942,0.0058	-14447.15
0.9891,0.0109	-14488.31
0.9960,0.0040	-14457.16
0.9936,0.0064	-14457.74
0.9947,0.0053	-14467.74
0.9956,0.0044	-14457.13
0.9928,0.0072	-14468.02
0.9906,0.0094	-14506.44
0.9968,0.0032	-14451.70
0.9953,0.0047	-14446.46
0.9952,0.0048	-14489.13
0.9953,0.0047	-14467.85
0.9924,0.0076	-14468.18
0.9918,0.0082	-14473.26
0.9975,0.0025	-14434.07
0.9956,0.0044	-14457.13
0.9961,0.0039	-14451.62
0.9948,0.0052	-14462.50
0.9908,0.0092	-14464.36
0.9932,0.0068	-14502.82
0.9976,0.0024	-14446.09
0.9954,0.0046	-14440.98
0.9962,0.0038	-14434.88
0.9958,0.0042	-14473.55
0.9920,0.0080	-14487.65
0.9913,0.0087	-14497.16
0.9976,0.0024	-14440.07
0.9959,0.0041	-14457.14
0.9964,0.0036	-14440.38
0.9955,0.0045	-14451.74
0.9916,0.0084	-14459.06
0.9909,0.0091	-14487.75
0.9981,0.0019	-14427.67
0.9967,0.0033	-14434.54
0.9960,0.0040	-14462.66
0.9961,0.0039	-14457.16
0.9900,0.0100	-14510.95
0.9901,0.0099	-14474.13
0.9977,0.0023	-14446.16
0.9965,0.0035	-14462.96
0.9970,0.0030	-14457.53
0.9958,0.0042	-14446.21
0.9921,0.0079	-14482.82
0.9887,0.0113	-14479.51
0.9974,0.0026	-14434.14
0.9973,0.0027	-14451.90
0.9971,0.0029	-14451.79
0.9961,0.0039	-14440.54
0.9923,0.0077	-14473.11
0.9914,0.0086	-14487.68
0.9969,0.0031	-14451.71
0.9972,0.0028	-14451.83
0.9970,0.0030	-14440.16
0.9968,0.0032	-14451.70
0.9939,0.0061	-14477.95
0.9926,0.0074	-14468.11
0.9966,0.0034	-14440.30
0.9979,0.0021	-14446.33
0.9966,0.0034	-14434.59
0.9975,0.0025	-14452.06
0.9943,0.0057	-14472.89
0.9919,0.0081	-14478.04
0.9967,0.0033	-14445.96
0.9986,0.0014	-14427.48
0.9969,0.0031	-14440.18
0.9978,0.0022	-14458.48
0.9940,0.0060	-14457.53
0.9920,0.0080	-14482.84
0.9967,0.0033	-14445.95
0.9986,0.0014	-14427.48
0.9956,0.0044	-14446.28
0.9980,0.0020	-14446.40
0.9933,0.0067	-14487.86
0.9931,0.0069	-14453.01
0.9966,0.0034	-14445.97
0.9985,0.0015	-14427.51
0.9963,0.0037	-14446.02
0.9980,0.0020	-14440.15
0.9912,0.0088	-14478.25
0.9942,0.0058	-14493.48
0.9970,0.0030	-14445.95
0.9985,0.0015	-14453.50
0.9959,0.0041	-14457.14
0.9982,0.0018	-14440.28
0.9891,0.0109	-14497.31
0.9940,0.0060	-14462.63
0.9965,0.0035	-14451.63
0.9986,0.0014	-14440.59
0.9959,0.0041	-14446.17
0.9979,0.0021	-14440.13
0.9882,0.0118	-14493.15
0.9938,0.0062	-14472.85
0.9960,0.0040	-14451.64
0.9987,0.0013	-14440.78
0.9952,0.0048	-14457.16
0.9982,0.0018	-14465.45
0.9882,0.0118	-14502.00
0.9934,0.0066	-14452.84
0.9963,0.0037	-14440.42
0.9986,0.0014	-14453.72
0.9955,0.0045	-14462.53
0.9982,0.0018	-14440.28
0.9864,0.0136	-14506.92
0.9922,0.0078	-14473.12
0.9952,0.0048	-14467.84
0.9988,0.0012	-14434.16
0.9955,0.0045	-14467.94
0.9980,0.0020	-14446.35
0.9890,0.0110	-14479.36
0.9929,0.0071	-14482.82
0.9957,0.0043	-14451.68
0.9987,0.0013	-14447.31
0.9953,0.0047	-14441.07
0.9982,0.0018	-14440.27
0.9861,0.0139	-14511.31
0.9939,0.0061	-14508.50
0.9960,0.0040	-14451.64
0.9987,0.0013	-14440.72
0.9947,0.0053	-14457.26
0.9987,0.0013	-14427.47
0.9862,0.0138	-14532.62
0.9931,0.0069	-14462.97
0.9957,0.0043	-14451.68
0.9984,0.0016	-14446.86
0.9934,0.0066	-14462.83
0.9986,0.0014	-14447.27
0.9854,0.0146	-14524.19
0.9938,0.0062	-14457.60
0.9963,0.0037	-14446.02
0.9979,0.0021	-14446.30
0.9934,0.0066	-14467.84
0.9986,0.0014	-14447.21
0.9836,0.0164	-14528.74
0.9943,0.0057	-14472.89
0.9965,0.0035	-14445.99
0.9980,0.0020	-14433.96
0.9947,0.0053	-14462.50
0.9983,0.0017	-14433.95
0.9857,0.0143	-14519.91
0.9951,0.0049	-14473.10
0.9970,0.0030	-14463.41
0.9978,0.0022	-14446.23
0.9948,0.0052	-14451.97
0.9982,0.0018	-14433.94
0.9881,0.0119	-14484.37
0.9955,0.0045	-14451.73
0.9973,0.0027	-14463.73
0.9974,0.0026	-14440.08
0.9945,0.0055	-14452.13
0.9986,0.0014	-14427.50
0.9888,0.0112	-14506.36
0.9953,0.0047	-14446.43
0.9978,0.0022	-14434.00
0.9978,0.0022	-14446.24
0.9948,0.0052	-14462.50
0.9984,0.0016	-14446.81
0.9900,0.0100	-14515.54
0.9951,0.0049	-14451.87
0.9977,0.0023	-14452.26
0.9978,0.0022	-14470.62
0.9958,0.0042	-14468.04
0.9984,0.0016	-14427.55
0.9895,0.0105	-14492.69
0.9955,0.0045	-14467.94
0.9975,0.0025	-14434.10
0.9975,0.0025	-14434.09
0.9965,0.0035	-14445.97
0.9980,0.0020	-14440.17
0.9931,0.0069	-14477.87
0.9962,0.0038	-14462.74
0.9971,0.0029	-14445.96
0.9970,0.0030	-14451.77
0.9966,0.0034	-14451.64
0.9979,0.0021	-14452.48
0.9917,0.0083	-14473.33
0.9961,0.0039	-14451.63
0.9974,0.0026	-14452.00
0.9972,0.0028	-14463.56
0.9972,0.0028	-14457.72
0.9974,0.0026	-14434.11
0.9891,0.0109	-14492.82
0.9956,0.0044	-14446.26
0.9977,0.0023	-14452.22
0.9976,0.0024	-14446.09
0.9970,0.0030	-14463.33
0.9974,0.0026	-14452.01
0.9878,0.0122	-14515.30
0.9953,0.0047	-14473.23
0.9967,0.0033	-14440.26
0.9974,0.0026	-14463.82
0.9978,0.0022	-14433.97
0.9975,0.0025	-14440.07
0.9910,0.0090	-14464.25
0.9959,0.0041	-14429.68
0.9962,0.0038	-14473.91
0.9979,0.0021	-14427.77
0.9979,0.0021	-14440.14
0.9974,0.0026	-14440.08
0.9906,0.0094	-14492.47
0.9955,0.0045	-14467.92
0.9965,0.0035	-14451.63
0.9980,0.0020	-14427.73
0.9983,0.0017	-14446.70
0.9969,0.0031	-14434.41
0.9897,0.0103	-14469.78
0.9954,0.0046	-14451.76
0.9958,0.0042	-14446.18
0.9975,0.0025	-14440.07
0.9981,0.0019	-14433.94
0.9979,0.0021	-14440.11
0.9897,0.0103	-14478.92
0.9954,0.0046	-14473.28
0.9961,0.0039	-14446.09
0.9972,0.0028	-14445.98
0.9981,0.0019	-14440.23
0.9979,0.0021	-14446.26
0.9881,0.0119	-14497.62
0.9955,0.0045	-14451.74
0.9962,0.0038	-14462.78
0.9976,0.0024	-14446.10
0.9985,0.0015	-14447.09
0.9978,0.0022	-14452.36
0.9869,0.0131	-14519.72
0.9960,0.0040	-14451.63
0.9955,0.0045	-14467.95
0.9975,0.0025	-14457.99
0.9985,0.0015	-14434.01
0.9976,0.0024	-14446.08
0.9872,0.0128	-14497.98
0.9961,0.0039	-14457.16
0.9942,0.0058	-14467.73
0.9970,0.0030	-14445.95
0.9982,0.0018	-14433.95
0.9971,0.0029	-14440.12
0.9860,0.0140	-14558.13
0.9962,0.0038	-14446.04
0.9947,0.0053	-14462.51
0.9971,0.0029	-14445.96
0.9985,0.0015	-14427.51
0.9970,0.0030	-14445.95
0.9857,0.0143	-14515.68
0.9964,0.0036	-14446.00
0.9940,0.0060	-14462.62
0.9975,0.0025	-14464.10
0.9985,0.0015	-14440.50
0.9972,0.0028	-14451.86
0.9850,0.0150	-14536.82
0.9958,0.0042	-14440.74
0.9940,0.0060	-14462.65
0.9977,0.0023	-14434.02
0.9985,0.0015	-14447.03
0.9972,0.0028	-14434.22
0.9861,0.0139	-14485.71
0.9964,0.0036	-14457.24
0.9946,0.0054	-14457.30
0.9977,0.0023	-14440.08
0.9984,0.0016	-14446.86
0.9966,0.0034	-14445.97
0.9877,0.0123	-14502.15
0.9960,0.0040	-14451.63
0.9942,0.0058	-14472.88
0.9979,0.0021	-14458.56
0.9982,0.0018	-14465.45
0.9966,0.0034	-14462.99
0.9890,0.0110	-14497.35
0.9946,0.0054	-14446.88
0.9937,0.0063	-14472.85
0.9977,0.0023	-14434.01
0.9980,0.0020	-14440.17
0.9964,0.0036	-14440.38
0.9917,0.0083	-14478.10
0.9942,0.0058	-14467.73
0.9938,0.0062	-14457.60
0.9979,0.0021	-14471.02
0.9980,0.0020	-14427.73
0.9959,0.0041	-14446.15
0.9929,0.0071	-14467.98
0.9930,0.0070	-14462.99
0.9947,0.0053	-14452.03
0.9978,0.0022	-14440.11
0.9977,0.0023	-14427.98
0.9960,0.0040	-14468.17
0.9913,0.0087	-14506.63
0.9933,0.0067	-14452.85
0.9929,0.0071	-14477.88
0.9981,0.0019	-14440.23
0.9965,0.0035	-14434.71
0.9954,0.0046	-14451.75
0.9915,0.0085	-14497.19
0.9937,0.0063	-14488.01
0.9949,0.0051	-14441.42
0.9979,0.0021	-14446.33
0.9939,0.0061	-14447.36
0.9949,0.0051	-14441.38
0.9915,0.0085	-14497.19
