#isoforms=['ENSG00000101294.SE.1.A.up_ENSG00000101294.SE.1.A.SE1_ENSG00000101294.SE.1.A.dn','ENSG00000101294.SE.1.B.up_ENSG00000101294.SE.1.B.dn']	exon_lens=('ENSG00000101294.SE.1.A.up',99),('ENSG00000101294.SE.1.A.SE1',376),('ENSG00000101294.SE.1.A.dn',89),('ENSG00000101294.SE.1.B.up',99),('ENSG00000101294.SE.1.B.dn',89)	iters=5000	burn_in=500	lag=10	percent_accept=97.30	proposal_type=drift	counts=(0,0):1131,(1,0):223	assigned_counts=0:223	chrom=chr20	strand=+	mRNA_starts=31527484,31527484	mRNA_ends=31545035,31545035
sampled_psi	log_score
0.9576,0.0424	-1371.55
0.9826,0.0174	-1370.43
0.9540,0.0460	-1371.72
0.9339,0.0661	-1372.67
0.9662,0.0338	-1371.16
0.9402,0.0598	-1372.37
0.9611,0.0389	-1371.39
0.9802,0.0198	-1370.54
0.9523,0.0477	-1371.80
0.9392,0.0608	-1372.42
0.9671,0.0329	-1371.12
0.9400,0.0600	-1372.38
0.9637,0.0363	-1371.28
0.9798,0.0202	-1370.55
0.9439,0.0561	-1372.20
0.9418,0.0582	-1372.30
0.9404,0.0596	-1372.36
0.9213,0.0787	-1373.29
0.9653,0.0347	-1371.20
0.9803,0.0197	-1370.53
0.9260,0.0740	-1373.06
0.9484,0.0516	-1371.98
0.9454,0.0546	-1372.13
0.9315,0.0685	-1372.79
0.9693,0.0307	-1371.02
0.9764,0.0236	-1370.71
0.9305,0.0695	-1372.84
0.9510,0.0490	-1371.86
0.9512,0.0488	-1371.85
0.9277,0.0723	-1372.97
0.9620,0.0380	-1371.35
0.9798,0.0202	-1370.55
0.9292,0.0708	-1372.90
0.9504,0.0496	-1371.89
0.9568,0.0432	-1371.59
0.9233,0.0767	-1373.19
0.9649,0.0351	-1371.22
0.9790,0.0210	-1370.59
0.9310,0.0690	-1372.81
0.9442,0.0558	-1372.18
0.9652,0.0348	-1371.21
0.9318,0.0682	-1372.77
0.9636,0.0364	-1371.28
0.9830,0.0170	-1370.41
0.9206,0.0794	-1373.32
0.9560,0.0440	-1371.63
0.9638,0.0362	-1371.27
0.9332,0.0668	-1372.71
0.9600,0.0400	-1371.45
0.9843,0.0157	-1370.35
0.9202,0.0798	-1373.35
0.9548,0.0452	-1371.69
0.9689,0.0311	-1371.04
0.9427,0.0573	-1372.25
0.9575,0.0425	-1371.56
0.9797,0.0203	-1370.56
0.9189,0.0811	-1373.41
0.9518,0.0482	-1371.83
0.9712,0.0288	-1370.94
0.9350,0.0650	-1372.62
0.9612,0.0388	-1371.39
0.9755,0.0245	-1370.74
0.9231,0.0769	-1373.20
0.9534,0.0466	-1371.75
0.9594,0.0406	-1371.47
0.9250,0.0750	-1373.11
0.9667,0.0333	-1371.14
0.9713,0.0287	-1370.93
0.9304,0.0696	-1372.85
0.9434,0.0566	-1372.22
0.9627,0.0373	-1371.32
0.9396,0.0604	-1372.40
0.9650,0.0350	-1371.22
0.9653,0.0347	-1371.20
0.9453,0.0547	-1372.13
0.9351,0.0649	-1372.62
0.9637,0.0363	-1371.28
0.9389,0.0611	-1372.43
0.9646,0.0354	-1371.24
0.9624,0.0376	-1371.34
0.9524,0.0476	-1371.80
0.9392,0.0608	-1372.42
0.9676,0.0324	-1371.10
0.9546,0.0454	-1371.70
0.9699,0.0301	-1370.99
0.9621,0.0379	-1371.35
0.9550,0.0450	-1371.68
0.9430,0.0570	-1372.24
0.9588,0.0412	-1371.50
0.9447,0.0553	-1372.16
0.9685,0.0315	-1371.06
0.9612,0.0388	-1371.39
0.9462,0.0538	-1372.09
0.9467,0.0533	-1372.07
0.9573,0.0427	-1371.57
0.9484,0.0516	-1371.99
0.9698,0.0302	-1371.00
0.9636,0.0364	-1371.28
0.9464,0.0536	-1372.08
0.9524,0.0476	-1371.80
0.9470,0.0530	-1372.05
0.9483,0.0517	-1371.99
0.9744,0.0256	-1370.79
0.9575,0.0425	-1371.56
0.9416,0.0584	-1372.31
0.9539,0.0461	-1371.73
0.9389,0.0611	-1372.43
0.9488,0.0512	-1371.96
0.9761,0.0239	-1370.72
0.9546,0.0454	-1371.69
0.9456,0.0544	-1372.12
0.9589,0.0411	-1371.50
0.9509,0.0491	-1371.87
0.9467,0.0533	-1372.07
0.9758,0.0242	-1370.73
0.9679,0.0321	-1371.09
0.9331,0.0669	-1372.71
0.9629,0.0371	-1371.31
0.9360,0.0640	-1372.57
0.9414,0.0586	-1372.32
0.9765,0.0235	-1370.70
0.9629,0.0371	-1371.31
0.9445,0.0555	-1372.17
0.9608,0.0392	-1371.41
0.9370,0.0630	-1372.53
0.9282,0.0718	-1372.95
0.9789,0.0211	-1370.59
0.9632,0.0368	-1371.30
0.9527,0.0473	-1371.78
0.9603,0.0397	-1371.43
0.9455,0.0545	-1372.12
0.9110,0.0890	-1373.81
0.9812,0.0188	-1370.49
0.9472,0.0528	-1372.04
0.9562,0.0438	-1371.62
0.9664,0.0336	-1371.15
0.9403,0.0597	-1372.37
0.9327,0.0673	-1372.74
0.9807,0.0193	-1370.51
0.9342,0.0658	-1372.66
0.9544,0.0456	-1371.71
0.9632,0.0368	-1371.30
0.9475,0.0525	-1372.02
0.9281,0.0719	-1372.96
0.9812,0.0188	-1370.49
0.9396,0.0604	-1372.40
0.9606,0.0394	-1371.42
0.9723,0.0277	-1370.89
0.9423,0.0577	-1372.27
0.9171,0.0829	-1373.50
0.9758,0.0242	-1370.73
0.9372,0.0628	-1372.52
0.9595,0.0405	-1371.47
0.9704,0.0296	-1370.97
0.9412,0.0588	-1372.32
0.9330,0.0670	-1372.72
0.9834,0.0166	-1370.39
0.9400,0.0600	-1372.38
0.9606,0.0394	-1371.42
0.9768,0.0232	-1370.69
0.9403,0.0597	-1372.37
0.9375,0.0625	-1372.50
0.9827,0.0173	-1370.42
0.9532,0.0468	-1371.76
0.9582,0.0418	-1371.53
0.9765,0.0235	-1370.70
0.9454,0.0546	-1372.12
0.9297,0.0703	-1372.88
0.9825,0.0175	-1370.43
0.9520,0.0480	-1371.82
0.9660,0.0340	-1371.17
0.9722,0.0278	-1370.89
0.9617,0.0383	-1371.37
0.9244,0.0756	-1373.14
0.9850,0.0150	-1370.32
0.9362,0.0638	-1372.56
0.9578,0.0422	-1371.54
0.9714,0.0286	-1370.93
0.9735,0.0265	-1370.83
0.9265,0.0735	-1373.04
0.9827,0.0173	-1370.42
0.9468,0.0532	-1372.06
0.9600,0.0400	-1371.45
0.9703,0.0297	-1370.98
0.9686,0.0314	-1371.05
0.9130,0.0870	-1373.71
0.9840,0.0160	-1370.37
0.9476,0.0524	-1372.02
0.9553,0.0447	-1371.66
0.9669,0.0331	-1371.13
0.9658,0.0342	-1371.18
0.9096,0.0904	-1373.88
0.9811,0.0189	-1370.49
0.9465,0.0535	-1372.07
0.9489,0.0511	-1371.96
0.9666,0.0334	-1371.15
0.9591,0.0409	-1371.49
0.9174,0.0826	-1373.49
0.9802,0.0198	-1370.53
0.9456,0.0544	-1372.12
0.9370,0.0630	-1372.53
0.9708,0.0292	-1370.95
0.9537,0.0463	-1371.74
0.9249,0.0751	-1373.11
0.9748,0.0252	-1370.77
0.9402,0.0598	-1372.38
0.9440,0.0560	-1372.19
0.9767,0.0233	-1370.69
0.9472,0.0528	-1372.04
0.9232,0.0768	-1373.20
0.9770,0.0230	-1370.68
0.9448,0.0552	-1372.16
0.9527,0.0473	-1371.78
0.9741,0.0259	-1370.80
0.9500,0.0500	-1371.91
0.9117,0.0883	-1373.77
0.9760,0.0240	-1370.72
0.9514,0.0486	-1371.85
0.9576,0.0424	-1371.56
0.9754,0.0246	-1370.75
0.9554,0.0446	-1371.66
0.9186,0.0814	-1373.42
0.9712,0.0288	-1370.94
0.9545,0.0455	-1371.70
0.9585,0.0415	-1371.51
0.9755,0.0245	-1370.74
0.9537,0.0463	-1371.74
0.9080,0.0920	-1373.96
0.9725,0.0275	-1370.88
0.9549,0.0451	-1371.68
0.9558,0.0442	-1371.64
0.9831,0.0169	-1370.41
0.9582,0.0418	-1371.53
0.8929,0.1071	-1374.73
0.9742,0.0258	-1370.80
0.9564,0.0436	-1371.61
0.9602,0.0398	-1371.44
0.9857,0.0143	-1370.29
0.9639,0.0361	-1371.27
0.8985,0.1015	-1374.44
0.9780,0.0220	-1370.63
0.9608,0.0392	-1371.41
0.9675,0.0325	-1371.10
0.9862,0.0138	-1370.27
0.9552,0.0448	-1371.67
0.8797,0.1203	-1375.44
0.9756,0.0244	-1370.74
0.9676,0.0324	-1371.10
0.9688,0.0312	-1371.04
0.9809,0.0191	-1370.50
0.9645,0.0355	-1371.24
0.8737,0.1263	-1375.76
0.9702,0.0298	-1370.98
0.9626,0.0374	-1371.33
0.9754,0.0246	-1370.75
0.9841,0.0159	-1370.36
0.9627,0.0373	-1371.32
0.8803,0.1197	-1375.40
0.9657,0.0343	-1371.19
0.9634,0.0366	-1371.29
0.9763,0.0237	-1370.71
0.9860,0.0140	-1370.28
0.9610,0.0390	-1371.40
0.8606,0.1394	-1376.48
0.9610,0.0390	-1371.40
0.9583,0.0417	-1371.52
0.9746,0.0254	-1370.78
0.9898,0.0102	-1370.11
0.9616,0.0384	-1371.37
0.8660,0.1340	-1376.18
0.9606,0.0394	-1371.42
0.9624,0.0376	-1371.34
0.9760,0.0240	-1370.72
0.9902,0.0098	-1370.10
0.9609,0.0391	-1371.40
0.8624,0.1376	-1376.38
0.9648,0.0352	-1371.22
0.9576,0.0424	-1371.55
0.9778,0.0222	-1370.64
0.9887,0.0113	-1370.16
0.9518,0.0482	-1371.82
0.8311,0.1689	-1378.19
0.9740,0.0260	-1370.81
0.9558,0.0442	-1371.64
0.9752,0.0248	-1370.76
0.9910,0.0090	-1370.06
0.9443,0.0557	-1372.18
0.8211,0.1789	-1378.79
0.9748,0.0252	-1370.78
0.9521,0.0479	-1371.81
0.9711,0.0289	-1370.94
0.9896,0.0104	-1370.12
0.9392,0.0608	-1372.42
0.8115,0.1885	-1379.37
0.9752,0.0248	-1370.76
0.9573,0.0427	-1371.57
0.9702,0.0298	-1370.98
0.9914,0.0086	-1370.05
0.9415,0.0585	-1372.31
0.8128,0.1872	-1379.30
0.9745,0.0255	-1370.79
0.9557,0.0443	-1371.65
0.9725,0.0275	-1370.88
0.9899,0.0101	-1370.11
0.9457,0.0543	-1372.11
0.8238,0.1762	-1378.62
0.9751,0.0249	-1370.76
0.9539,0.0461	-1371.73
0.9780,0.0220	-1370.63
0.9895,0.0105	-1370.12
0.9506,0.0494	-1371.88
0.8583,0.1417	-1376.61
0.9787,0.0213	-1370.60
0.9579,0.0421	-1371.54
0.9728,0.0272	-1370.86
0.9894,0.0106	-1370.13
0.9549,0.0451	-1371.68
0.8442,0.1558	-1377.42
0.9796,0.0204	-1370.56
0.9512,0.0488	-1371.85
0.9718,0.0282	-1370.91
0.9887,0.0113	-1370.16
0.9557,0.0443	-1371.65
0.8775,0.1225	-1375.56
0.9802,0.0198	-1370.54
0.9433,0.0567	-1372.22
0.9716,0.0284	-1370.92
0.9892,0.0108	-1370.14
0.9605,0.0395	-1371.42
0.8686,0.1314	-1376.04
0.9830,0.0170	-1370.41
0.9393,0.0607	-1372.41
0.9731,0.0269	-1370.85
0.9913,0.0087	-1370.05
0.9614,0.0386	-1371.38
0.8615,0.1385	-1376.43
0.9803,0.0197	-1370.53
0.9352,0.0648	-1372.61
0.9654,0.0346	-1371.20
0.9900,0.0100	-1370.11
0.9637,0.0363	-1371.27
0.8752,0.1248	-1375.68
0.9821,0.0179	-1370.45
0.9428,0.0572	-1372.25
0.9610,0.0390	-1371.40
0.9908,0.0092	-1370.07
0.9613,0.0387	-1371.39
0.8684,0.1316	-1376.05
0.9789,0.0211	-1370.59
0.9444,0.0556	-1372.18
0.9650,0.0350	-1371.22
0.9910,0.0090	-1370.06
0.9675,0.0325	-1371.10
0.8942,0.1058	-1374.67
0.9810,0.0190	-1370.50
0.9464,0.0536	-1372.08
0.9700,0.0300	-1370.99
0.9910,0.0090	-1370.06
0.9702,0.0298	-1370.98
0.8994,0.1006	-1374.40
0.9804,0.0196	-1370.53
0.9483,0.0517	-1371.99
0.9720,0.0280	-1370.90
0.9920,0.0080	-1370.02
0.9708,0.0292	-1370.95
0.9315,0.0685	-1372.79
0.9836,0.0164	-1370.38
0.9474,0.0526	-1372.03
0.9664,0.0336	-1371.15
0.9921,0.0079	-1370.01
0.9653,0.0347	-1371.20
0.9453,0.0547	-1372.13
0.9801,0.0199	-1370.54
0.9545,0.0455	-1371.70
0.9660,0.0340	-1371.17
0.9910,0.0090	-1370.06
0.9631,0.0369	-1371.30
0.9349,0.0651	-1372.63
0.9806,0.0194	-1370.52
0.9626,0.0374	-1371.33
0.9603,0.0397	-1371.43
0.9892,0.0108	-1370.14
0.9628,0.0372	-1371.32
0.9318,0.0682	-1372.78
0.9770,0.0230	-1370.68
0.9634,0.0366	-1371.29
0.9646,0.0354	-1371.24
0.9896,0.0104	-1370.12
0.9577,0.0423	-1371.55
0.9393,0.0607	-1372.41
0.9825,0.0175	-1370.43
0.9681,0.0319	-1371.08
0.9666,0.0334	-1371.15
0.9886,0.0114	-1370.17
0.9578,0.0422	-1371.55
0.9371,0.0629	-1372.52
0.9804,0.0196	-1370.53
0.9607,0.0393	-1371.41
0.9747,0.0253	-1370.78
0.9901,0.0099	-1370.10
0.9371,0.0629	-1372.52
0.9141,0.0859	-1373.65
0.9787,0.0213	-1370.60
0.9649,0.0351	-1371.22
0.9761,0.0239	-1370.72
0.9899,0.0101	-1370.11
0.9303,0.0697	-1372.85
0.9234,0.0766	-1373.19
0.9836,0.0164	-1370.38
0.9712,0.0288	-1370.94
0.9764,0.0236	-1370.70
0.9881,0.0119	-1370.19
0.9166,0.0834	-1373.53
0.9512,0.0488	-1371.85
0.9799,0.0201	-1370.55
0.9687,0.0313	-1371.05
0.9707,0.0293	-1370.96
0.9889,0.0111	-1370.15
0.9188,0.0812	-1373.42
0.9506,0.0494	-1371.88
0.9744,0.0256	-1370.79
0.9644,0.0356	-1371.24
0.9755,0.0245	-1370.74
0.9855,0.0145	-1370.30
0.9152,0.0848	-1373.60
0.9548,0.0452	-1371.68
0.9707,0.0293	-1370.96
0.9729,0.0271	-1370.86
0.9810,0.0190	-1370.50
0.9866,0.0134	-1370.25
0.9168,0.0832	-1373.51
0.9492,0.0508	-1371.95
0.9765,0.0235	-1370.70
0.9699,0.0301	-1370.99
0.9769,0.0231	-1370.68
0.9872,0.0128	-1370.23
0.9231,0.0769	-1373.20
0.9454,0.0546	-1372.12
0.9832,0.0168	-1370.40
0.9754,0.0246	-1370.75
0.9737,0.0263	-1370.83
0.9856,0.0144	-1370.30
0.9204,0.0796	-1373.33
0.9569,0.0431	-1371.59
0.9841,0.0159	-1370.36
0.9695,0.0305	-1371.01
0.9729,0.0271	-1370.86
0.9865,0.0135	-1370.26
0.9201,0.0799	-1373.35
0.9518,0.0482	-1371.83
0.9842,0.0158	-1370.36
0.9640,0.0360	-1371.26
0.9699,0.0301	-1371.00
0.9847,0.0153	-1370.34
0.9226,0.0774	-1373.23
0.9604,0.0396	-1371.43
0.9877,0.0123	-1370.21
0.9436,0.0564	-1372.21
0.9707,0.0293	-1370.96
0.9849,0.0151	-1370.33
0.9338,0.0662	-1372.68
0.9637,0.0363	-1371.28
0.9888,0.0112	-1370.16
0.9426,0.0574	-1372.26
0.9745,0.0255	-1370.79
0.9867,0.0133	-1370.25
0.9456,0.0544	-1372.12
0.9661,0.0339	-1371.17
0.9880,0.0120	-1370.19
0.9288,0.0712	-1372.92
0.9711,0.0289	-1370.94
0.9862,0.0138	-1370.27
0.9458,0.0542	-1372.11
0.9588,0.0412	-1371.50
0.9888,0.0112	-1370.16
0.9233,0.0767	-1373.19
0.9714,0.0286	-1370.93
0.9831,0.0169	-1370.41
0.9572,0.0428	-1371.57
0.9564,0.0436	-1371.61
0.9873,0.0127	-1370.22
0.9210,0.0790	-1373.31
0.9689,0.0311	-1371.04
0.9792,0.0208	-1370.58
0.9641,0.0359	-1371.26
0.9563,0.0437	-1371.62
0.9852,0.0148	-1370.32
0.9446,0.0554	-1372.16
0.9695,0.0305	-1371.01
0.9877,0.0123	-1370.20
0.9659,0.0341	-1371.18
0.9568,0.0432	-1371.59
0.9895,0.0105	-1370.13
0.9435,0.0565	-1372.22
0.9748,0.0252	-1370.78
0.9877,0.0123	-1370.21
0.9678,0.0322	-1371.09
0.9525,0.0475	-1371.79
0.9905,0.0095	-1370.09
0.9413,0.0587	-1372.32
0.9783,0.0217	-1370.62
0.9870,0.0130	-1370.23
0.9694,0.0306	-1371.02
0.9485,0.0515	-1371.98
0.9922,0.0078	-1370.01
0.9432,0.0568	-1372.23
0.9841,0.0159	-1370.36
0.9886,0.0114	-1370.17
0.9673,0.0327	-1371.11
0.9530,0.0470	-1371.77
0.9942,0.0058	-1369.92
0.9354,0.0646	-1372.60
0.9850,0.0150	-1370.32
0.9889,0.0111	-1370.15
0.9698,0.0302	-1371.00
0.9648,0.0352	-1371.23
0.9949,0.0051	-1369.89
0.9471,0.0529	-1372.05
0.9797,0.0203	-1370.55
0.9869,0.0131	-1370.24
0.9579,0.0421	-1371.54
0.9678,0.0322	-1371.09
0.9946,0.0054	-1369.91
0.9536,0.0464	-1371.74
0.9828,0.0172	-1370.42
0.9869,0.0131	-1370.24
0.9562,0.0438	-1371.62
0.9659,0.0341	-1371.18
0.9940,0.0060	-1369.93
0.9621,0.0379	-1371.35
0.9814,0.0186	-1370.48
0.9872,0.0128	-1370.23
0.9468,0.0532	-1372.06
0.9671,0.0329	-1371.12
0.9923,0.0077	-1370.01
0.9661,0.0339	-1371.17
0.9838,0.0162	-1370.38
0.9871,0.0129	-1370.23
0.9407,0.0593	-1372.35
0.9732,0.0268	-1370.85
0.9927,0.0073	-1369.99
0.9710,0.0290	-1370.94
0.9823,0.0177	-1370.44
0.9857,0.0143	-1370.29
0.9236,0.0764	-1373.18
0.9723,0.0277	-1370.89
0.9930,0.0070	-1369.98
0.9752,0.0248	-1370.76
0.9827,0.0173	-1370.43
0.9845,0.0155	-1370.35
0.9263,0.0737	-1373.04
0.9754,0.0246	-1370.75
0.9933,0.0067	-1369.96
0.9752,0.0248	-1370.76
0.9864,0.0136	-1370.26
0.9868,0.0132	-1370.24
0.9374,0.0626	-1372.51
0.9767,0.0233	-1370.69
0.9924,0.0076	-1370.00
0.9722,0.0278	-1370.89
0.9890,0.0110	-1370.15
0.9817,0.0183	-1370.47
0.9371,0.0629	-1372.52
0.9736,0.0264	-1370.83
0.9922,0.0078	-1370.01
0.9688,0.0312	-1371.05
0.9852,0.0148	-1370.31
0.9822,0.0178	-1370.45
0.9437,0.0563	-1372.20
0.9615,0.0385	-1371.38
0.9927,0.0073	-1369.99
0.9728,0.0272	-1370.87
0.9849,0.0151	-1370.33
0.9795,0.0205	-1370.57
0.9454,0.0546	-1372.12
0.9568,0.0432	-1371.59
0.9923,0.0077	-1370.00
0.9815,0.0185	-1370.48
0.9855,0.0145	-1370.30
0.9776,0.0224	-1370.65
0.9568,0.0432	-1371.59
0.9593,0.0407	-1371.48
0.9926,0.0074	-1369.99
0.9838,0.0162	-1370.37
0.9885,0.0115	-1370.17
0.9760,0.0240	-1370.72
0.9565,0.0435	-1371.61
0.9427,0.0573	-1372.25
0.9947,0.0053	-1369.90
0.9793,0.0207	-1370.57
0.9887,0.0113	-1370.16
0.9784,0.0216	-1370.62
0.9676,0.0324	-1371.10
0.9483,0.0517	-1371.99
0.9939,0.0061	-1369.94
0.9781,0.0219	-1370.63
0.9889,0.0111	-1370.15
0.9829,0.0171	-1370.41
0.9704,0.0296	-1370.97
0.9476,0.0524	-1372.02
0.9930,0.0070	-1369.97
0.9799,0.0201	-1370.55
0.9893,0.0107	-1370.14
0.9768,0.0232	-1370.69
0.9714,0.0286	-1370.93
0.9495,0.0505	-1371.93
0.9945,0.0055	-1369.91
0.9798,0.0202	-1370.55
0.9881,0.0119	-1370.19
0.9745,0.0255	-1370.79
0.9745,0.0255	-1370.79
0.9524,0.0476	-1371.80
0.9949,0.0051	-1369.89
0.9811,0.0189	-1370.50
0.9879,0.0121	-1370.20
0.9752,0.0248	-1370.76
0.9749,0.0251	-1370.77
0.9487,0.0513	-1371.97
0.9943,0.0057	-1369.92
0.9857,0.0143	-1370.29
0.9866,0.0134	-1370.25
0.9734,0.0266	-1370.84
0.9781,0.0219	-1370.63
0.9552,0.0448	-1371.67
0.9933,0.0067	-1369.96
0.9837,0.0163	-1370.38
0.9878,0.0122	-1370.20
0.9726,0.0274	-1370.87
0.9795,0.0205	-1370.57
0.9496,0.0504	-1371.93
0.9924,0.0076	-1370.00
0.9800,0.0200	-1370.55
0.9884,0.0116	-1370.18
0.9700,0.0300	-1370.99
0.9805,0.0195	-1370.52
0.9462,0.0538	-1372.09
0.9928,0.0072	-1369.99
0.9776,0.0224	-1370.65
0.9877,0.0123	-1370.20
0.9671,0.0329	-1371.12
0.9773,0.0227	-1370.66
0.9324,0.0676	-1372.75
0.9921,0.0079	-1370.02
0.9793,0.0207	-1370.57
0.9869,0.0131	-1370.24
0.9666,0.0334	-1371.15
0.9793,0.0207	-1370.58
0.9319,0.0681	-1372.77
0.9904,0.0096	-1370.09
0.9769,0.0231	-1370.68
0.9823,0.0177	-1370.44
0.9685,0.0315	-1371.06
0.9778,0.0222	-1370.64
0.9158,0.0842	-1373.56
0.9928,0.0072	-1369.98
0.9792,0.0208	-1370.58
0.9793,0.0207	-1370.58
0.9690,0.0310	-1371.03
0.9813,0.0187	-1370.49
0.9224,0.0776	-1373.23
0.9917,0.0083	-1370.03
0.9770,0.0230	-1370.68
0.9790,0.0210	-1370.59
0.9722,0.0278	-1370.89
0.9806,0.0194	-1370.52
0.9208,0.0792	-1373.32
0.9911,0.0089	-1370.06
0.9802,0.0198	-1370.53
0.9800,0.0200	-1370.54
0.9738,0.0262	-1370.82
0.9741,0.0259	-1370.80
0.9151,0.0849	-1373.60
0.9918,0.0082	-1370.03
0.9822,0.0178	-1370.45
0.9797,0.0203	-1370.56
0.9747,0.0253	-1370.78
0.9781,0.0219	-1370.63
0.9260,0.0740	-1373.06
0.9911,0.0089	-1370.06
0.9795,0.0205	-1370.57
0.9758,0.0242	-1370.73
0.9761,0.0239	-1370.72
0.9792,0.0208	-1370.58
0.9315,0.0685	-1372.79
0.9896,0.0104	-1370.12
0.9810,0.0190	-1370.50
0.9792,0.0208	-1370.58
0.9696,0.0304	-1371.01
0.9823,0.0177	-1370.44
0.9366,0.0634	-1372.55
0.9894,0.0106	-1370.13
0.9778,0.0222	-1370.64
0.9779,0.0221	-1370.64
0.9706,0.0294	-1370.96
0.9827,0.0173	-1370.42
0.9457,0.0543	-1372.11
0.9908,0.0092	-1370.07
0.9748,0.0252	-1370.78
0.9815,0.0185	-1370.48
0.9761,0.0239	-1370.72
0.9845,0.0155	-1370.34
0.9423,0.0577	-1372.27
0.9917,0.0083	-1370.03
0.9726,0.0274	-1370.87
0.9830,0.0170	-1370.41
0.9733,0.0267	-1370.84
0.9869,0.0131	-1370.24
0.9432,0.0568	-1372.23
0.9916,0.0084	-1370.04
0.9740,0.0260	-1370.81
0.9824,0.0176	-1370.44
0.9637,0.0363	-1371.28
0.9846,0.0154	-1370.34
0.9464,0.0536	-1372.08
0.9892,0.0108	-1370.14
0.9684,0.0316	-1371.06
0.9845,0.0155	-1370.35
0.9625,0.0375	-1371.33
0.9845,0.0155	-1370.34
0.9596,0.0404	-1371.46
0.9910,0.0090	-1370.06
0.9680,0.0320	-1371.08
0.9871,0.0129	-1370.23
0.9566,0.0434	-1371.60
0.9874,0.0126	-1370.22
0.9649,0.0351	-1371.22
0.9915,0.0085	-1370.04
0.9692,0.0308	-1371.03
0.9900,0.0100	-1370.10
0.9601,0.0399	-1371.44
0.9868,0.0132	-1370.25
0.9673,0.0327	-1371.11
0.9907,0.0093	-1370.08
0.9681,0.0319	-1371.08
0.9865,0.0135	-1370.26
0.9694,0.0306	-1371.02
0.9874,0.0126	-1370.22
0.9724,0.0276	-1370.88
0.9907,0.0093	-1370.07
0.9625,0.0375	-1371.33
0.9863,0.0137	-1370.26
0.9758,0.0242	-1370.73
0.9859,0.0141	-1370.29
0.9681,0.0319	-1371.08
0.9923,0.0077	-1370.00
0.9588,0.0412	-1371.50
0.9839,0.0161	-1370.37
0.9771,0.0229	-1370.67
0.9874,0.0126	-1370.22
0.9737,0.0263	-1370.83
0.9906,0.0094	-1370.08
0.9537,0.0463	-1371.74
0.9835,0.0165	-1370.39
0.9734,0.0266	-1370.84
0.9882,0.0118	-1370.18
0.9817,0.0183	-1370.47
0.9920,0.0080	-1370.02
0.9617,0.0383	-1371.37
0.9843,0.0157	-1370.36
0.9691,0.0309	-1371.03
0.9894,0.0106	-1370.13
0.9836,0.0164	-1370.38
0.9927,0.0073	-1369.99
0.9585,0.0415	-1371.51
0.9834,0.0166	-1370.39
0.9738,0.0262	-1370.82
0.9887,0.0113	-1370.16
0.9862,0.0138	-1370.27
0.9918,0.0082	-1370.02
0.9574,0.0426	-1371.56
0.9835,0.0165	-1370.39
0.9717,0.0283	-1370.91
0.9892,0.0108	-1370.14
0.9831,0.0169	-1370.41
0.9926,0.0074	-1369.99
0.9440,0.0560	-1372.19
0.9809,0.0191	-1370.51
0.9689,0.0311	-1371.04
0.9901,0.0099	-1370.10
0.9803,0.0197	-1370.53
0.9923,0.0077	-1370.01
0.9508,0.0492	-1371.87
0.9830,0.0170	-1370.41
0.9699,0.0301	-1370.99
0.9898,0.0102	-1370.11
0.9752,0.0248	-1370.76
0.9924,0.0076	-1370.00
0.9522,0.0478	-1371.81
0.9818,0.0182	-1370.46
0.9665,0.0335	-1371.15
0.9901,0.0099	-1370.10
0.9789,0.0211	-1370.59
0.9928,0.0072	-1369.98
0.9527,0.0473	-1371.78
0.9822,0.0178	-1370.45
0.9719,0.0281	-1370.91
0.9866,0.0134	-1370.25
0.9767,0.0233	-1370.69
0.9920,0.0080	-1370.02
0.9575,0.0425	-1371.56
0.9851,0.0149	-1370.32
0.9713,0.0287	-1370.93
0.9876,0.0124	-1370.21
0.9843,0.0157	-1370.35
0.9935,0.0065	-1369.95
0.9508,0.0492	-1371.87
0.9831,0.0169	-1370.41
0.9714,0.0286	-1370.93
0.9855,0.0145	-1370.30
0.9855,0.0145	-1370.30
0.9931,0.0069	-1369.97
0.9477,0.0523	-1372.02
0.9813,0.0187	-1370.49
0.9630,0.0370	-1371.31
0.9822,0.0178	-1370.45
0.9808,0.0192	-1370.51
0.9922,0.0078	-1370.01
0.9422,0.0578	-1372.28
0.9798,0.0202	-1370.55
0.9663,0.0337	-1371.16
0.9808,0.0192	-1370.51
0.9825,0.0175	-1370.43
0.9941,0.0059	-1369.93
0.9427,0.0573	-1372.25
0.9755,0.0245	-1370.74
0.9713,0.0287	-1370.93
0.9801,0.0199	-1370.54
0.9821,0.0179	-1370.45
0.9947,0.0053	-1369.90
0.9275,0.0725	-1372.99
0.9753,0.0247	-1370.75
0.9818,0.0182	-1370.47
0.9800,0.0200	-1370.55
0.9844,0.0156	-1370.35
0.9948,0.0052	-1369.90
0.9339,0.0661	-1372.67
0.9763,0.0237	-1370.71
0.9831,0.0169	-1370.41
0.9790,0.0210	-1370.59
0.9836,0.0164	-1370.39
0.9929,0.0071	-1369.98
0.9393,0.0607	-1372.42
0.9772,0.0228	-1370.67
0.9799,0.0201	-1370.55
0.9808,0.0192	-1370.51
