#isoforms=['ENSG00000110080.SE.2.A.up_ENSG00000110080.SE.2.A.SE1_ENSG00000110080.SE.2.A.dn','ENSG00000110080.SE.2.B.up_ENSG00000110080.SE.2.B.dn']	exon_lens=('ENSG00000110080.SE.2.A.up',61),('ENSG00000110080.SE.2.A.SE1',96),('ENSG00000110080.SE.2.A.dn',190),('ENSG00000110080.SE.2.B.up',61),('ENSG00000110080.SE.2.B.dn',190)	iters=5000	burn_in=500	lag=10	percent_accept=94.80	proposal_type=drift	counts=(0,0):117,(0,1):2,(1,0):141,(1,1):122	assigned_counts=0:258,1:7	chrom=chr11	strand=+	mRNA_starts=126407574,126407574	mRNA_ends=126408496,126408496
sampled_psi	log_score
0.9571,0.0429	-1508.64
0.8710,0.1290	-1547.98
0.9464,0.0536	-1529.53
0.9613,0.0387	-1514.84
0.9544,0.0456	-1517.94
0.9650,0.0350	-1518.22
0.9653,0.0347	-1504.94
0.8735,0.1265	-1540.19
0.9436,0.0564	-1529.40
0.9624,0.0376	-1527.82
0.9505,0.0495	-1517.96
0.9621,0.0379	-1527.79
0.9708,0.0292	-1511.67
0.8955,0.1045	-1549.94
0.9439,0.0561	-1518.12
0.9513,0.0487	-1523.89
0.9557,0.0443	-1511.80
0.9585,0.0415	-1511.70
0.9640,0.0360	-1501.73
0.9131,0.0869	-1534.30
0.9508,0.0492	-1515.00
0.9508,0.0492	-1512.04
0.9436,0.0564	-1523.77
0.9518,0.0482	-1523.91
0.9632,0.0368	-1511.60
0.8945,0.1055	-1534.95
0.9465,0.0535	-1512.29
0.9490,0.0510	-1526.76
0.9502,0.0498	-1529.76
0.9625,0.0375	-1511.61
0.9670,0.0330	-1504.84
0.9165,0.0835	-1529.47
0.9456,0.0544	-1532.34
0.9462,0.0538	-1515.18
0.9491,0.0509	-1517.98
0.9519,0.0481	-1511.97
0.9648,0.0352	-1511.59
0.9367,0.0633	-1521.13
0.9387,0.0613	-1518.33
0.9602,0.0398	-1511.65
0.9485,0.0515	-1509.26
0.9516,0.0484	-1506.03
0.9635,0.0365	-1508.32
0.9392,0.0608	-1518.31
0.9491,0.0509	-1520.91
0.9523,0.0477	-1514.95
0.9567,0.0433	-1508.66
0.9688,0.0312	-1515.05
0.9621,0.0379	-1521.31
0.9457,0.0543	-1518.06
0.9450,0.0550	-1515.24
0.9363,0.0637	-1513.08
0.9441,0.0559	-1515.29
0.9619,0.0381	-1518.07
0.9530,0.0470	-1520.95
0.9242,0.0758	-1529.25
0.9603,0.0397	-1511.65
0.9442,0.0558	-1523.77
0.9431,0.0569	-1520.96
0.9682,0.0318	-1511.61
0.9521,0.0479	-1503.00
0.9256,0.0744	-1534.27
0.9585,0.0415	-1508.56
0.9542,0.0458	-1517.94
0.9453,0.0547	-1526.62
0.9735,0.0265	-1508.18
0.9362,0.0638	-1529.21
0.9459,0.0541	-1509.47
0.9583,0.0417	-1511.71
0.9563,0.0437	-1514.86
0.9377,0.0623	-1518.38
0.9748,0.0252	-1515.52
0.9498,0.0502	-1520.91
0.9317,0.0683	-1523.95
0.9584,0.0416	-1514.84
0.9421,0.0579	-1526.56
0.9469,0.0531	-1529.56
0.9717,0.0283	-1508.17
0.9428,0.0572	-1523.76
0.9371,0.0629	-1518.42
0.9548,0.0452	-1508.78
0.9498,0.0502	-1520.91
0.9300,0.0700	-1526.59
0.9742,0.0258	-1504.57
0.9447,0.0553	-1529.45
0.9441,0.0559	-1518.11
0.9592,0.0408	-1511.68
0.9476,0.0524	-1520.91
0.9141,0.0859	-1520.10
0.9763,0.0237	-1508.26
0.9504,0.0496	-1523.87
0.9334,0.0666	-1518.62
0.9665,0.0335	-1518.31
0.9523,0.0477	-1532.91
0.8885,0.1115	-1553.96
0.9724,0.0276	-1511.73
0.9614,0.0386	-1524.49
0.9226,0.0774	-1539.20
0.9677,0.0323	-1504.80
0.9559,0.0441	-1527.17
0.9092,0.0908	-1522.87
0.9704,0.0296	-1508.17
0.9575,0.0425	-1508.62
0.9173,0.0827	-1527.03
0.9673,0.0327	-1508.21
0.9510,0.0490	-1514.99
0.9149,0.0851	-1529.52
0.9706,0.0294	-1511.66
0.9711,0.0289	-1504.65
0.9106,0.0894	-1543.64
0.9652,0.0348	-1528.21
0.9399,0.0601	-1526.53
0.9237,0.0763	-1531.75
0.9735,0.0265	-1508.18
0.9703,0.0297	-1501.19
0.9163,0.0837	-1524.69
0.9648,0.0352	-1514.90
0.9356,0.0644	-1523.85
0.9275,0.0725	-1521.56
0.9749,0.0251	-1508.21
0.9767,0.0233	-1504.54
0.9063,0.0937	-1532.20
0.9602,0.0398	-1527.57
0.9390,0.0610	-1526.52
0.9329,0.0671	-1516.01
0.9670,0.0330	-1518.35
0.9761,0.0239	-1504.54
0.9041,0.0959	-1525.57
0.9585,0.0415	-1508.56
0.9187,0.0813	-1531.81
0.9361,0.0639	-1523.84
0.9666,0.0334	-1511.59
0.9761,0.0239	-1515.68
0.9172,0.0828	-1519.82
0.9596,0.0404	-1527.51
0.9110,0.0890	-1541.32
0.9398,0.0602	-1521.03
0.9691,0.0309	-1521.96
0.9749,0.0251	-1511.87
0.9349,0.0651	-1518.53
0.9591,0.0409	-1524.30
0.9067,0.0933	-1534.46
0.9132,0.0868	-1524.89
0.9678,0.0322	-1518.40
0.9704,0.0296	-1504.68
0.9324,0.0676	-1529.18
0.9526,0.0474	-1511.94
0.9246,0.0754	-1531.75
0.9097,0.0903	-1520.51
0.9696,0.0304	-1518.56
0.9711,0.0289	-1501.14
0.9354,0.0646	-1539.89
0.9562,0.0438	-1517.94
0.9174,0.0826	-1546.29
0.9235,0.0765	-1514.31
0.9703,0.0297	-1504.68
0.9739,0.0261	-1519.05
0.9507,0.0493	-1529.79
0.9583,0.0417	-1527.37
0.8952,0.1048	-1534.92
0.9066,0.0934	-1545.82
0.9729,0.0271	-1511.76
0.9736,0.0264	-1515.40
0.9581,0.0419	-1524.23
0.9464,0.0536	-1515.18
0.9045,0.0955	-1539.02
0.8853,0.1147	-1529.35
0.9730,0.0270	-1504.59
0.9761,0.0239	-1500.83
0.9500,0.0500	-1509.13
0.9572,0.0428	-1502.42
0.9176,0.0824	-1534.25
0.8793,0.1207	-1549.79
0.9713,0.0287	-1501.12
0.9723,0.0277	-1508.17
0.9578,0.0422	-1514.84
0.9623,0.0377	-1508.37
0.9227,0.0773	-1524.32
0.8844,0.1156	-1545.71
0.9676,0.0324	-1508.20
0.9749,0.0251	-1500.89
0.9452,0.0548	-1515.23
0.9527,0.0473	-1517.94
0.9181,0.0819	-1534.24
0.8973,0.1027	-1543.49
0.9651,0.0349	-1514.90
0.9788,0.0212	-1508.39
0.9447,0.0553	-1523.77
0.9520,0.0480	-1517.94
0.9280,0.0720	-1534.31
0.8430,0.1570	-1545.94
0.9746,0.0254	-1500.91
0.9770,0.0230	-1515.79
0.9429,0.0571	-1518.16
0.9524,0.0476	-1517.94
0.9297,0.0703	-1534.35
0.8330,0.1670	-1561.25
0.9705,0.0295	-1511.66
0.9755,0.0245	-1511.91
0.9464,0.0536	-1518.04
0.9508,0.0492	-1512.03
0.9370,0.0630	-1513.02
0.8361,0.1639	-1559.55
0.9654,0.0346	-1501.60
0.9733,0.0267	-1518.97
0.9392,0.0608	-1523.79
0.9496,0.0504	-1512.10
0.9252,0.0748	-1539.29
0.8630,0.1370	-1529.86
0.9652,0.0348	-1518.23
0.9713,0.0287	-1515.21
0.9404,0.0596	-1537.57
0.9384,0.0616	-1523.80
0.9126,0.0874	-1534.31
0.8811,0.1189	-1545.78
0.9712,0.0288	-1501.13
0.9688,0.0312	-1521.92
0.9315,0.0685	-1526.57
0.9444,0.0556	-1535.10
0.9262,0.0738	-1524.16
0.8490,0.1510	-1548.94
0.9672,0.0328	-1518.36
0.9667,0.0333	-1521.69
0.9505,0.0495	-1529.78
0.9602,0.0398	-1521.20
0.9179,0.0821	-1524.59
0.8671,0.1329	-1542.48
0.9711,0.0289	-1508.16
0.9600,0.0400	-1508.48
0.9450,0.0550	-1520.93
0.9614,0.0386	-1501.98
0.9266,0.0734	-1524.14
0.8324,0.1676	-1559.66
0.9604,0.0396	-1511.65
0.9497,0.0503	-1517.97
0.9443,0.0557	-1520.94
0.9627,0.0373	-1505.10
0.9280,0.0720	-1531.75
0.8435,0.1565	-1547.58
0.9547,0.0453	-1514.89
0.9537,0.0463	-1520.96
0.9493,0.0507	-1509.19
0.9687,0.0313	-1518.48
0.9376,0.0624	-1521.10
0.8429,0.1571	-1557.71
0.9516,0.0484	-1511.99
0.9549,0.0451	-1514.88
0.9333,0.0667	-1515.98
0.9625,0.0375	-1508.36
0.9308,0.0692	-1516.18
0.8491,0.1509	-1542.02
0.9588,0.0412	-1517.98
0.9563,0.0437	-1514.86
0.9264,0.0736	-1524.15
0.9567,0.0433	-1514.85
0.9407,0.0593	-1509.95
0.8680,0.1320	-1542.43
0.9518,0.0482	-1520.93
0.9660,0.0340	-1501.54
0.9313,0.0687	-1521.36
0.9574,0.0426	-1514.85
0.9270,0.0730	-1521.58
0.8801,0.1199	-1535.83
0.9571,0.0429	-1517.95
0.9743,0.0257	-1511.83
0.9456,0.0544	-1520.92
0.9486,0.0514	-1517.99
0.9309,0.0691	-1521.38
0.8972,0.1028	-1543.49
0.9578,0.0422	-1514.84
0.9692,0.0308	-1501.28
0.9475,0.0525	-1526.70
0.9469,0.0531	-1532.43
0.9310,0.0690	-1521.37
0.9052,0.0948	-1536.76
0.9555,0.0445	-1514.87
0.9657,0.0343	-1511.59
0.9481,0.0519	-1523.81
0.9422,0.0578	-1515.39
0.9331,0.0669	-1518.64
0.9212,0.0788	-1534.24
0.9613,0.0387	-1505.21
0.9747,0.0253	-1504.56
0.9489,0.0511	-1520.91
0.9488,0.0512	-1512.15
0.9273,0.0727	-1519.02
0.9071,0.0929	-1527.60
0.9562,0.0438	-1521.03
0.9769,0.0231	-1500.79
0.9602,0.0398	-1511.65
0.9363,0.0637	-1518.46
0.9207,0.0793	-1526.88
0.9079,0.0921	-1529.85
0.9524,0.0476	-1520.94
0.9765,0.0235	-1504.54
0.9542,0.0458	-1517.94
0.9331,0.0669	-1521.27
0.9048,0.0952	-1541.27
0.8953,0.1047	-1530.62
0.9522,0.0478	-1508.97
0.9787,0.0213	-1496.90
0.9485,0.0515	-1512.16
0.9082,0.0918	-1532.12
0.9012,0.0988	-1550.12
0.9077,0.0923	-1527.57
0.9511,0.0489	-1520.92
0.9721,0.0279	-1504.62
0.9495,0.0505	-1517.98
0.9068,0.0932	-1529.90
0.8756,0.1244	-1545.92
0.9107,0.0893	-1541.32
0.9571,0.0429	-1521.06
0.9676,0.0324	-1511.60
0.9482,0.0518	-1520.91
0.9136,0.0864	-1534.29
0.8716,0.1284	-1544.14
0.9227,0.0773	-1529.28
0.9601,0.0399	-1514.83
0.9677,0.0323	-1518.40
0.9502,0.0498	-1515.02
0.9204,0.0796	-1526.89
0.8990,0.1010	-1536.92
0.8981,0.1019	-1534.78
0.9576,0.0424	-1514.84
0.9638,0.0362	-1511.59
0.9504,0.0496	-1529.77
0.9343,0.0657	-1521.22
0.9031,0.0969	-1541.27
0.9081,0.0919	-1534.42
0.9619,0.0381	-1521.30
0.9668,0.0332	-1501.48
0.9572,0.0428	-1517.96
0.9405,0.0595	-1518.25
0.9001,0.0999	-1525.90
0.9019,0.0981	-1543.49
0.9587,0.0413	-1521.12
0.9706,0.0294	-1522.16
0.9388,0.0612	-1529.25
0.9475,0.0525	-1515.12
0.9206,0.0794	-1531.79
0.9019,0.0981	-1541.28
0.9549,0.0451	-1530.14
0.9711,0.0289	-1518.71
0.9337,0.0663	-1523.89
0.9512,0.0488	-1517.95
0.9188,0.0812	-1524.54
0.9169,0.0831	-1541.45
0.9538,0.0462	-1530.05
0.9702,0.0298	-1515.13
0.9397,0.0603	-1523.78
0.9482,0.0518	-1518.00
0.9290,0.0710	-1524.04
0.9382,0.0618	-1512.92
0.9542,0.0458	-1511.86
0.9677,0.0323	-1498.00
0.9447,0.0553	-1506.74
0.9367,0.0633	-1513.04
0.9294,0.0706	-1539.49
0.9361,0.0639	-1518.47
0.9401,0.0599	-1534.79
0.9604,0.0396	-1514.83
0.9462,0.0538	-1515.18
0.9324,0.0676	-1523.93
0.9312,0.0688	-1529.18
0.9436,0.0564	-1520.95
0.9339,0.0661	-1515.94
0.9476,0.0524	-1526.70
0.9544,0.0456	-1514.89
0.9525,0.0475	-1514.94
0.9368,0.0632	-1531.91
0.9434,0.0566	-1518.14
0.9407,0.0593	-1515.48
0.9301,0.0699	-1531.77
0.9495,0.0505	-1512.11
0.9529,0.0471	-1508.92
0.9424,0.0576	-1515.38
0.9493,0.0507	-1526.77
0.9530,0.0470	-1529.97
0.9323,0.0677	-1531.80
0.9586,0.0414	-1514.84
0.9422,0.0578	-1520.97
0.9475,0.0525	-1512.23
0.9426,0.0574	-1515.37
0.9536,0.0464	-1520.96
0.9437,0.0563	-1546.32
0.9547,0.0453	-1520.98
0.9526,0.0474	-1508.94
0.9408,0.0592	-1523.77
0.9321,0.0679	-1529.18
0.9473,0.0527	-1518.02
0.9516,0.0484	-1514.97
0.9292,0.0708	-1524.04
0.9520,0.0480	-1508.98
0.9506,0.0494	-1520.92
0.9305,0.0695	-1521.39
0.9438,0.0562	-1518.12
0.9456,0.0544	-1518.07
0.9352,0.0648	-1513.18
0.9445,0.0555	-1526.60
0.9687,0.0313	-1504.75
0.9361,0.0639	-1523.84
0.9516,0.0484	-1506.03
0.9401,0.0599	-1526.53
0.9363,0.0637	-1521.14
0.9426,0.0574	-1518.17
0.9709,0.0291	-1511.67
0.9437,0.0563	-1518.13
0.9364,0.0636	-1523.83
0.9257,0.0743	-1529.22
0.9278,0.0722	-1516.43
0.9442,0.0558	-1515.28
0.9771,0.0229	-1504.54
0.9418,0.0582	-1518.20
0.9454,0.0546	-1512.37
0.9058,0.0942	-1529.96
0.9117,0.0883	-1527.33
0.9474,0.0526	-1523.80
0.9723,0.0277	-1511.73
0.9259,0.0741	-1529.22
0.9444,0.0556	-1529.43
0.9057,0.0943	-1536.75
0.9242,0.0758	-1534.25
0.9513,0.0487	-1520.92
0.9789,0.0211	-1508.40
0.9167,0.0833	-1529.46
0.9320,0.0680	-1523.94
0.8958,0.1042	-1534.89
0.9223,0.0777	-1521.87
0.9507,0.0493	-1506.12
0.9800,0.0200	-1504.58
0.9213,0.0787	-1536.70
0.9225,0.0775	-1531.76
0.8972,0.1028	-1523.99
0.9284,0.0716	-1524.07
0.9602,0.0398	-1505.28
0.9757,0.0243	-1515.62
0.9232,0.0768	-1529.27
0.9304,0.0696	-1529.18
0.9054,0.0946	-1527.72
0.9212,0.0788	-1531.78
0.9647,0.0353	-1511.59
0.9735,0.0265	-1511.79
0.9270,0.0730	-1524.12
0.9334,0.0666	-1523.90
0.9063,0.0937	-1518.58
0.9362,0.0638	-1515.77
0.9681,0.0319	-1511.61
0.9639,0.0361	-1505.02
0.9299,0.0701	-1529.18
0.9418,0.0582	-1526.55
0.8988,0.1012	-1543.48
0.9527,0.0473	-1514.94
0.9629,0.0371	-1508.34
0.9710,0.0290	-1501.15
0.9283,0.0717	-1531.75
0.9333,0.0667	-1523.90
0.8999,0.1001	-1534.70
0.9626,0.0374	-1514.85
0.9591,0.0409	-1524.30
0.9685,0.0315	-1508.18
0.9432,0.0568	-1518.15
0.9226,0.0774	-1541.68
0.9026,0.0974	-1532.37
0.9602,0.0398	-1514.83
0.9386,0.0614	-1515.61
0.9744,0.0256	-1508.20
0.9396,0.0604	-1512.80
0.9170,0.0830	-1527.04
0.8961,0.1039	-1534.87
0.9598,0.0402	-1511.66
0.9276,0.0724	-1529.20
0.9705,0.0295	-1508.17
0.9390,0.0610	-1515.58
0.9247,0.0753	-1529.24
0.8913,0.1087	-1545.64
0.9615,0.0385	-1508.41
0.9382,0.0618	-1523.80
0.9712,0.0288	-1515.20
0.9308,0.0692	-1518.78
0.9211,0.0789	-1519.49
0.8949,0.1051	-1543.50
0.9580,0.0420	-1505.46
0.9376,0.0624	-1521.10
0.9640,0.0360	-1518.16
0.9414,0.0586	-1509.88
0.9110,0.0890	-1541.32
0.8928,0.1072	-1526.56
0.9553,0.0447	-1514.88
0.9278,0.0722	-1531.75
0.9702,0.0298	-1504.68
0.9365,0.0635	-1529.21
0.9140,0.0860	-1524.84
0.8907,0.1093	-1528.87
0.9577,0.0423	-1517.96
0.9421,0.0579	-1515.40
0.9679,0.0321	-1504.79
0.9366,0.0634	-1510.36
0.9259,0.0741	-1516.59
0.9222,0.0778	-1526.82
0.9617,0.0383	-1521.29
0.9288,0.0712	-1516.34
0.9614,0.0386	-1508.41
0.9387,0.0613	-1521.06
0.9306,0.0694	-1536.97
0.9008,0.0992	-1532.46
0.9653,0.0347	-1524.89
0.9217,0.0783	-1514.51
0.9642,0.0358	-1514.88
0.9507,0.0493	-1520.92
0.9359,0.0641	-1523.84
0.9128,0.0872	-1524.91
0.9650,0.0350	-1508.27
0.9059,0.0941	-1536.74
0.9715,0.0285	-1504.64
0.9456,0.0544	-1523.78
0.9387,0.0613	-1510.15
0.9063,0.0937	-1532.20
0.9644,0.0356	-1504.99
0.9284,0.0716	-1518.94
0.9736,0.0264	-1504.58
0.9438,0.0562	-1520.95
0.9388,0.0612	-1518.33
0.8871,0.1129	-1539.49
0.9622,0.0378	-1514.85
0.9278,0.0722	-1526.64
0.9648,0.0352	-1514.90
0.9314,0.0686	-1518.74
0.9495,0.0505	-1517.98
0.8935,0.1065	-1539.26
0.9592,0.0408	-1517.99
0.9369,0.0631	-1545.40
0.9619,0.0381	-1518.07
0.9423,0.0577	-1518.18
0.9592,0.0408	-1505.36
0.8640,0.1360	-1542.67
0.9590,0.0410	-1508.53
0.9365,0.0635	-1521.13
0.9626,0.0374	-1508.36
0.9500,0.0500	-1520.91
0.9669,0.0331	-1504.84
0.8854,0.1146	-1537.52
0.9599,0.0401	-1514.83
0.9369,0.0631	-1523.82
0.9576,0.0424	-1517.96
0.9585,0.0415	-1508.56
0.9733,0.0267	-1508.18
0.8749,0.1251	-1530.38
0.9532,0.0468	-1508.90
0.9403,0.0597	-1521.02
0.9569,0.0431	-1521.05
0.9453,0.0547	-1506.68
0.9653,0.0347	-1514.91
0.8722,0.1278	-1546.03
0.9478,0.0522	-1523.81
0.9549,0.0451	-1533.20
0.9558,0.0442	-1524.09
0.9444,0.0556	-1535.10
0.9687,0.0313	-1508.18
0.8810,0.1190	-1539.77
0.9460,0.0540	-1523.78
0.9424,0.0576	-1512.58
0.9472,0.0528	-1526.68
0.9476,0.0524	-1518.01
0.9631,0.0369	-1521.38
0.8921,0.1079	-1539.30
0.9426,0.0574	-1534.96
0.9311,0.0689	-1521.36
0.9512,0.0488	-1532.80
0.9515,0.0485	-1517.95
0.9702,0.0298	-1501.20
0.8699,0.1301	-1548.02
0.9519,0.0481	-1508.99
0.9371,0.0629	-1523.82
0.9514,0.0486	-1517.95
0.9528,0.0472	-1520.94
0.9688,0.0312	-1511.62
0.8752,0.1248	-1547.88
0.9603,0.0397	-1498.90
0.9370,0.0630	-1556.21
0.9482,0.0518	-1541.26
0.9494,0.0506	-1512.12
0.9658,0.0342	-1524.94
0.8764,0.1236	-1543.94
0.9646,0.0354	-1501.67
0.9582,0.0418	-1508.57
0.9612,0.0388	-1521.26
0.9425,0.0575	-1529.36
0.9667,0.0333	-1511.59
0.8885,0.1115	-1547.74
0.9681,0.0319	-1511.60
0.9637,0.0363	-1518.15
0.9617,0.0383	-1514.84
0.9471,0.0529	-1515.14
0.9598,0.0402	-1508.49
0.8907,0.1093	-1547.74
0.9701,0.0299	-1504.69
0.9645,0.0355	-1511.59
0.9604,0.0396	-1518.02
0.9552,0.0448	-1502.64
0.9685,0.0315	-1504.76
0.8873,0.1127	-1537.42
0.9637,0.0363	-1527.99
0.9666,0.0334	-1514.95
0.9526,0.0474	-1505.94
0.9511,0.0489	-1523.89
0.9696,0.0304	-1518.56
0.8908,0.1092	-1558.24
0.9721,0.0279	-1508.17
0.9676,0.0324	-1518.39
0.9649,0.0351	-1501.64
0.9484,0.0516	-1523.82
0.9687,0.0313	-1525.35
0.8688,0.1312	-1538.60
0.9723,0.0277	-1508.17
0.9668,0.0332	-1511.59
0.9643,0.0357	-1528.07
0.9581,0.0419	-1514.84
0.9646,0.0354	-1511.59
0.8721,0.1279	-1549.87
0.9662,0.0338	-1508.23
0.9680,0.0320	-1515.01
0.9571,0.0429	-1508.64
0.9526,0.0474	-1517.94
0.9479,0.0521	-1512.21
0.8553,0.1447	-1546.83
0.9645,0.0355	-1514.89
0.9624,0.0376	-1511.61
0.9619,0.0381	-1505.16
0.9587,0.0413	-1505.40
0.9429,0.0571	-1518.16
0.8482,0.1518	-1547.26
0.9561,0.0439	-1524.11
0.9660,0.0340	-1514.93
0.9666,0.0334	-1511.59
0.9528,0.0472	-1517.94
0.9462,0.0538	-1515.18
0.8456,0.1544	-1547.44
0.9491,0.0509	-1529.68
0.9582,0.0418	-1524.23
0.9612,0.0388	-1505.21
0.9447,0.0553	-1520.93
0.9438,0.0562	-1532.23
0.8530,0.1470	-1545.20
0.9525,0.0475	-1520.94
0.9639,0.0361	-1514.88
0.9516,0.0484	-1526.88
0.9461,0.0539	-1523.78
0.9482,0.0518	-1526.72
0.8688,0.1312	-1546.16
0.9452,0.0548	-1512.38
0.9685,0.0315	-1501.34
0.9551,0.0449	-1517.94
0.9547,0.0453	-1505.74
0.9455,0.0545	-1535.19
0.8898,0.1102	-1522.67
0.9365,0.0635	-1518.45
0.9664,0.0336	-1498.15
0.9516,0.0484	-1511.99
0.9381,0.0619	-1518.36
0.9392,0.0608	-1515.57
0.8949,0.1051	-1532.79
0.9324,0.0676	-1529.18
0.9622,0.0378	-1518.08
0.9424,0.0576	-1515.38
0.9387,0.0613	-1529.25
0.9414,0.0586	-1523.77
0.8837,0.1163	-1547.75
0.9314,0.0686	-1529.18
0.9643,0.0357	-1514.88
0.9567,0.0433	-1511.76
0.9261,0.0739	-1521.63
0.9407,0.0593	-1523.77
0.8665,0.1335	-1559.35
0.9355,0.0645	-1521.17
0.9586,0.0414	-1511.69
0.9570,0.0430	-1524.16
0.9212,0.0788	-1534.24
0.9393,0.0607	-1529.26
0.8688,0.1312	-1553.72
0.9323,0.0677	-1534.42
0.9514,0.0486	-1517.95
0.9555,0.0445	-1511.80
0.9337,0.0663	-1529.18
0.9302,0.0698	-1531.77
0.8928,0.1072	-1532.92
0.9351,0.0649	-1518.52
0.9544,0.0456	-1514.89
0.9515,0.0485	-1526.88
0.9375,0.0625	-1521.10
0.9246,0.0754	-1551.81
0.8972,0.1028	-1534.82
0.9295,0.0705	-1526.60
0.9550,0.0450	-1527.10
0.9487,0.0513	-1515.07
0.9453,0.0547	-1532.33
0.9418,0.0582	-1520.98
0.9018,0.0982	-1545.71
0.9380,0.0620	-1512.93
0.9488,0.0512	-1509.23
0.9567,0.0433	-1521.04
0.9309,0.0691	-1542.18
0.9451,0.0549	-1506.70
0.8893,0.1107	-1543.57
0.9266,0.0734	-1529.21
0.9482,0.0518	-1520.91
0.9612,0.0388	-1521.26
0.9239,0.0761	-1531.75
0.9531,0.0469	-1520.95
0.8890,0.1110	-1535.26
0.9250,0.0750	-1519.18
0.9487,0.0513	-1515.07
0.9561,0.0439	-1514.86
0.9222,0.0778	-1519.40
0.9567,0.0433	-1514.85
0.8984,0.1016	-1543.48
0.9174,0.0826	-1529.43
0.9521,0.0479	-1514.95
0.9543,0.0457	-1508.82
0.9158,0.0842	-1524.72
0.9592,0.0408	-1508.52
0.9104,0.0896	-1527.40
0.9065,0.0935	-1543.55
0.9534,0.0466	-1505.86
0.9553,0.0447	-1511.82
0.9448,0.0552	-1526.61
0.9569,0.0431	-1514.85
0.9123,0.0877	-1517.92
0.9034,0.0966	-1534.57
0.9480,0.0520	-1515.10
0.9550,0.0450	-1511.83
0.9353,0.0647	-1539.88
0.9376,0.0624	-1510.26
0.9065,0.0935	-1534.46
0.8992,0.1008	-1543.48
0.9419,0.0581	-1518.19
0.9495,0.0505	-1517.97
0.9531,0.0469	-1511.91
0.9316,0.0684	-1529.18
0.9096,0.0904	-1541.30
0.9099,0.0901	-1527.43
0.9399,0.0601	-1521.03
0.9559,0.0441	-1521.02
0.9492,0.0508	-1532.62
0.9350,0.0650	-1510.53
0.9172,0.0828	-1529.44
0.9054,0.0946	-1527.72
0.9402,0.0598	-1515.51
0.9482,0.0518	-1512.19
0.9538,0.0462	-1505.83
0.9376,0.0624	-1512.97
0.9310,0.0690	-1523.97
0.9210,0.0790	-1526.87
0.9344,0.0656	-1518.56
0.9471,0.0529	-1512.26
0.9567,0.0433	-1530.33
0.9419,0.0581	-1518.19
0.9201,0.0799	-1536.68
0.9348,0.0652	-1523.86
0.9327,0.0673	-1513.41
0.9569,0.0431	-1521.05
0.9601,0.0399	-1514.83
0.9432,0.0568	-1523.76
0.9306,0.0694	-1531.77
0.9328,0.0672	-1526.55
0.9335,0.0665	-1545.03
0.9492,0.0508	-1520.91
0.9493,0.0507	-1520.91
0.9435,0.0565	-1515.32
0.9470,0.0530	-1520.91
0.9362,0.0638	-1526.52
0.9270,0.0730	-1519.04
0.9553,0.0447	-1524.06
0.9523,0.0477	-1514.95
0.9476,0.0524	-1509.32
0.9493,0.0507	-1520.91
0.9443,0.0557	-1518.11
0.9217,0.0783	-1544.10
0.9633,0.0367	-1511.60
0.9510,0.0490	-1526.85
0.9451,0.0549	-1515.24
0.9437,0.0563	-1518.13
0.9556,0.0444	-1524.08
0.9313,0.0687	-1529.18
0.9547,0.0453	-1514.89
0.9447,0.0553	-1509.58
0.9473,0.0527	-1523.80
0.9435,0.0565	-1526.58
0.9579,0.0421	-1517.97
0.9393,0.0607	-1523.79
0.9580,0.0420	-1514.84
0.9543,0.0457	-1520.97
0.9392,0.0608	-1532.00
0.9450,0.0550	-1515.24
0.9624,0.0376	-1501.88
0.9415,0.0585	-1515.43
0.9610,0.0390	-1505.23
0.9566,0.0434	-1505.57
0.9374,0.0626	-1531.93
0.9519,0.0481	-1511.98
0.9703,0.0297	-1504.68
0.9350,0.0650	-1518.53
0.9580,0.0420	-1514.84
0.9650,0.0350	-1521.53
0.9420,0.0580	-1512.62
0.9593,0.0407	-1511.67
0.9638,0.0362	-1531.28
0.9237,0.0763	-1526.77
0.9609,0.0391	-1508.43
0.9688,0.0312	-1508.18
0.9445,0.0555	-1515.27
0.9579,0.0421	-1517.97
0.9582,0.0418	-1505.44
0.9318,0.0682	-1526.56
0.9683,0.0317	-1521.87
0.9678,0.0322	-1515.00
0.9493,0.0507	-1532.63
0.9564,0.0436	-1508.68
0.9636,0.0364	-1534.53
0.9393,0.0607	-1521.05
0.9668,0.0332	-1518.33
0.9712,0.0288	-1529.28
0.9331,0.0669	-1526.54
0.9537,0.0463	-1505.84
0.9568,0.0432	-1514.85
0.9420,0.0580	-1523.77
0.9688,0.0312	-1532.22
0.9752,0.0248	-1500.88
0.9387,0.0613	-1510.15
0.9529,0.0471	-1520.94
0.9612,0.0388	-1514.84
0.9460,0.0540	-1518.05
0.9682,0.0318	-1511.61
0.9780,0.0220	-1508.34
0.9411,0.0589	-1515.46
0.9527,0.0473	-1514.94
0.9472,0.0528	-1518.02
0.9501,0.0499	-1526.80
0.9694,0.0306	-1511.63
0.9806,0.0194	-1500.68
0.9517,0.0483	-1517.95
0.9563,0.0437	-1521.03
0.9486,0.0514	-1517.99
0.9425,0.0575	-1509.78
0.9737,0.0263	-1504.58
