#isoforms=['ENSG00000101294.SE.1.A.up_ENSG00000101294.SE.1.A.SE1_ENSG00000101294.SE.1.A.dn','ENSG00000101294.SE.1.B.up_ENSG00000101294.SE.1.B.dn']	exon_lens=('ENSG00000101294.SE.1.A.up',99),('ENSG00000101294.SE.1.A.SE1',376),('ENSG00000101294.SE.1.A.dn',89),('ENSG00000101294.SE.1.B.up',99),('ENSG00000101294.SE.1.B.dn',89)	iters=5000	burn_in=500	lag=10	percent_accept=84.17	proposal_type=drift	counts=(0,0):431,(1,0):134,(1,1):267	assigned_counts=0:190,1:211	chrom=chr20	strand=+	mRNA_starts=31527484,31527484	mRNA_ends=31545035,31545035
sampled_psi	log_score
0.2265,0.7735	-2530.83
0.2011,0.7989	-2530.59
0.1874,0.8126	-2518.30
0.1565,0.8435	-2498.28
0.1927,0.8073	-2531.05
0.1871,0.8129	-2515.37
0.2078,0.7922	-2519.72
0.1733,0.8267	-2517.73
0.1746,0.8254	-2516.05
0.1693,0.8307	-2507.03
0.1909,0.8091	-2518.19
0.1779,0.8221	-2505.08
0.1900,0.8100	-2512.41
0.1780,0.8220	-2524.97
0.1881,0.8119	-2515.34
0.1913,0.8087	-2539.80
0.1890,0.8110	-2532.81
0.1759,0.8241	-2505.13
0.1946,0.8054	-2523.82
0.1687,0.8313	-2507.07
0.1992,0.8008	-2523.71
0.1897,0.8103	-2516.77
0.2012,0.7988	-2523.69
0.1817,0.8183	-2524.60
0.1997,0.8003	-2516.76
0.2049,0.7951	-2511.49
0.1972,0.8028	-2512.52
0.1917,0.8083	-2510.98
0.2042,0.7958	-2534.57
0.1919,0.8081	-2531.11
0.2056,0.7944	-2503.43
0.1814,0.8186	-2518.60
0.1875,0.8125	-2516.83
0.1881,0.8119	-2521.19
0.2236,0.7764	-2523.22
0.2001,0.7999	-2525.09
0.2347,0.7653	-2518.36
0.1837,0.8163	-2518.47
0.1977,0.8023	-2536.34
0.2184,0.7816	-2525.41
0.2352,0.7648	-2533.76
0.1944,0.8056	-2509.61
0.2290,0.7710	-2526.11
0.2012,0.7988	-2520.94
0.2218,0.7782	-2519.32
0.2388,0.7612	-2535.17
0.2108,0.7892	-2515.89
0.2148,0.7852	-2526.55
0.1991,0.8009	-2544.59
0.2135,0.7865	-2539.55
0.2241,0.7759	-2540.65
0.2324,0.7676	-2532.38
0.2175,0.7825	-2520.24
0.2121,0.7879	-2530.41
0.1919,0.8081	-2531.11
0.1985,0.8015	-2516.74
0.2076,0.7924	-2522.39
0.2064,0.7936	-2521.02
0.1855,0.8145	-2533.17
0.1895,0.8105	-2508.05
0.1809,0.8191	-2515.62
0.2346,0.7654	-2538.45
0.2084,0.7916	-2522.41
0.2089,0.7911	-2507.79
0.1848,0.8152	-2513.95
0.2048,0.7952	-2538.62
0.2008,0.7992	-2512.65
0.1659,0.8341	-2497.61
0.1906,0.8094	-2542.77
0.2036,0.7964	-2516.87
0.1512,0.8488	-2504.05
0.2094,0.7906	-2522.44
0.2077,0.7923	-2537.12
0.1695,0.8305	-2522.91
0.2057,0.7943	-2526.41
0.2010,0.7990	-2515.42
0.2019,0.7981	-2530.56
0.1626,0.8374	-2504.34
0.2010,0.7990	-2526.45
0.1610,0.8390	-2501.19
0.2117,0.7883	-2515.95
0.2390,0.7610	-2531.72
0.1951,0.8049	-2515.30
0.1912,0.8088	-2509.53
0.1975,0.8025	-2529.35
0.1777,0.8223	-2508.15
0.2042,0.7958	-2518.25
0.2200,0.7800	-2530.56
0.2110,0.7890	-2521.18
0.1726,0.8274	-2505.26
0.1660,0.8340	-2508.90
0.2032,0.7968	-2530.52
0.2115,0.7885	-2522.52
0.2202,0.7798	-2520.45
0.2175,0.7825	-2529.21
0.1667,0.8333	-2502.40
0.1686,0.8314	-2519.84
0.1910,0.8090	-2529.74
0.2117,0.7883	-2525.15
0.2312,0.7688	-2541.92
0.1852,0.8148	-2510.98
0.1807,0.8193	-2518.65
0.1612,0.8388	-2496.23
0.2018,0.7982	-2515.44
0.2027,0.7973	-2503.15
0.2312,0.7688	-2535.92
0.1612,0.8388	-2511.07
0.1944,0.8056	-2515.29
0.1635,0.8365	-2510.79
0.1907,0.8093	-2518.19
0.1970,0.8030	-2513.92
0.2176,0.7824	-2524.09
0.2106,0.7894	-2521.16
0.2237,0.7763	-2533.19
0.1650,0.8350	-2513.87
0.2317,0.7683	-2541.93
0.2085,0.7915	-2521.08
0.2101,0.7899	-2513.20
0.1919,0.8081	-2508.11
0.1787,0.8213	-2512.69
0.1736,0.8264	-2519.26
0.2076,0.7924	-2529.09
0.2083,0.7917	-2511.73
0.2122,0.7878	-2515.99
0.1819,0.8181	-2523.08
0.1787,0.8213	-2515.75
0.1785,0.8215	-2509.65
0.2192,0.7808	-2519.10
0.1861,0.8139	-2512.44
0.2479,0.7521	-2530.39
0.2262,0.7738	-2534.51
0.1794,0.8206	-2503.54
0.1690,0.8310	-2495.90
0.2063,0.7937	-2514.28
0.2101,0.7899	-2515.84
0.2256,0.7744	-2524.62
0.2006,0.7994	-2516.78
0.1860,0.8140	-2515.40
0.1726,0.8274	-2509.96
0.2042,0.7958	-2501.93
0.2082,0.7918	-2513.06
0.2315,0.7685	-2538.33
0.2115,0.7885	-2529.10
0.1999,0.8001	-2527.86
0.1945,0.8055	-2506.77
0.2082,0.7918	-2526.42
0.1931,0.8069	-2519.58
0.2124,0.7876	-2533.04
0.2151,0.7849	-2521.38
0.2314,0.7686	-2551.53
0.2156,0.7844	-2531.74
0.2298,0.7702	-2538.28
0.2097,0.7903	-2518.48
0.1936,0.8064	-2516.72
0.2322,0.7678	-2518.02
0.2403,0.7597	-2544.49
0.2119,0.7881	-2527.79
0.2251,0.7749	-2540.65
0.2221,0.7779	-2518.09
0.2149,0.7851	-2527.85
0.2254,0.7746	-2538.18
0.2372,0.7628	-2533.90
0.1968,0.8032	-2512.51
0.1979,0.8021	-2526.53
0.2195,0.7805	-2534.35
0.1900,0.8100	-2515.31
0.1962,0.8038	-2523.77
0.2406,0.7594	-2544.51
0.2167,0.7833	-2518.91
0.2510,0.7490	-2551.56
0.2410,0.7590	-2533.04
0.2077,0.7923	-2515.70
0.1982,0.8018	-2530.71
0.2512,0.7488	-2534.09
0.1886,0.8114	-2521.17
0.2626,0.7374	-2544.86
0.2266,0.7734	-2539.43
0.2519,0.7481	-2538.52
0.2163,0.7837	-2512.44
0.2124,0.7876	-2521.24
0.1855,0.8145	-2510.98
0.2431,0.7569	-2535.51
0.2379,0.7621	-2536.28
0.1987,0.8013	-2548.82
0.2096,0.7904	-2511.83
0.1837,0.8163	-2512.50
0.1741,0.8259	-2527.00
0.2121,0.7879	-2539.60
0.2662,0.7338	-2547.25
0.2254,0.7746	-2515.96
0.1845,0.8155	-2518.42
0.2050,0.7950	-2512.86
0.1747,0.8253	-2508.28
0.2154,0.7846	-2526.57
0.2648,0.7352	-2552.23
0.2138,0.7862	-2531.73
0.2011,0.7989	-2525.07
0.2208,0.7792	-2534.37
0.2015,0.7985	-2534.71
0.2537,0.7463	-2533.31
0.2571,0.7429	-2546.49
0.2074,0.7926	-2521.05
0.1927,0.8073	-2515.29
0.2128,0.7872	-2527.80
0.2192,0.7808	-2526.72
0.2420,0.7580	-2538.84
0.2354,0.7646	-2542.02
0.2037,0.7963	-2510.06
0.1651,0.8349	-2497.64
0.1737,0.8263	-2531.73
0.2158,0.7842	-2521.42
0.2317,0.7683	-2531.15
0.2436,0.7564	-2543.48
0.1914,0.8086	-2510.97
0.1992,0.8008	-2516.76
0.1640,0.8360	-2515.62
0.1982,0.8018	-2508.35
0.2118,0.7882	-2533.04
0.2110,0.7890	-2513.26
0.2090,0.7910	-2534.41
0.2053,0.7947	-2506.10
0.1725,0.8275	-2502.13
0.1879,0.8121	-2529.98
0.1853,0.8147	-2508.02
0.2013,0.7987	-2522.31
0.2002,0.7998	-2515.39
0.1948,0.8052	-2533.75
0.1718,0.8282	-2502.15
0.2190,0.7810	-2538.16
0.1801,0.8199	-2497.47
0.1857,0.8143	-2521.32
0.2052,0.7948	-2520.99
0.1969,0.8031	-2530.78
0.1802,0.8198	-2526.26
0.2251,0.7749	-2543.12
0.1801,0.8199	-2523.23
0.1935,0.8065	-2518.15
0.2168,0.7832	-2520.20
0.2224,0.7776	-2538.15
0.2078,0.7922	-2519.72
0.1986,0.8014	-2529.30
0.1786,0.8214	-2511.17
0.2041,0.7959	-2508.73
0.2226,0.7774	-2535.65
0.2195,0.7805	-2540.69
0.1992,0.8008	-2523.71
0.2308,0.7692	-2528.68
0.1806,0.8194	-2508.07
0.1993,0.8007	-2533.44
0.2187,0.7813	-2525.43
0.2172,0.7828	-2522.79
0.2253,0.7747	-2550.53
0.2175,0.7825	-2525.37
0.1895,0.8105	-2513.87
0.2047,0.7953	-2518.27
0.2175,0.7825	-2533.05
0.2192,0.7808	-2520.37
0.2186,0.7814	-2529.24
0.2227,0.7773	-2534.40
0.2114,0.7886	-2533.04
0.1966,0.8034	-2527.98
0.2069,0.7931	-2514.31
0.2271,0.7729	-2548.01
0.2351,0.7649	-2545.55
0.1904,0.8096	-2522.54
0.2114,0.7886	-2525.15
0.1883,0.8117	-2513.88
0.2029,0.7971	-2507.27
0.2407,0.7593	-2534.17
0.1987,0.8013	-2516.75
0.2082,0.7918	-2517.06
0.2192,0.7808	-2533.07
0.2191,0.7809	-2526.72
0.2059,0.7941	-2521.01
0.2472,0.7528	-2525.86
0.2110,0.7890	-2543.60
0.2168,0.7832	-2524.05
0.1972,0.8028	-2534.98
0.2397,0.7603	-2531.78
0.2149,0.7851	-2530.44
0.2147,0.7853	-2522.65
0.1989,0.8011	-2530.68
0.2162,0.7838	-2524.02
0.1811,0.8189	-2532.20
0.2255,0.7745	-2525.84
0.2293,0.7707	-2530.99
0.2158,0.7842	-2542.07
0.2091,0.7909	-2526.43
0.2116,0.7884	-2527.78
0.2108,0.7892	-2525.13
0.2128,0.7872	-2522.57
0.2478,0.7522	-2539.26
0.2033,0.7967	-2526.42
0.2244,0.7756	-2533.21
0.2119,0.7881	-2533.04
0.2405,0.7595	-2539.90
0.2208,0.7792	-2524.28
0.2223,0.7777	-2529.39
0.1906,0.8094	-2505.18
0.1949,0.8051	-2511.04
0.1961,0.8039	-2519.54
0.2329,0.7671	-2543.15
0.2097,0.7903	-2527.76
0.2224,0.7776	-2518.12
0.1984,0.8016	-2518.14
0.1808,0.8192	-2514.11
0.2009,0.7991	-2518.17
0.2130,0.7870	-2518.66
0.2069,0.7931	-2551.94
0.1898,0.8102	-2521.12
0.2486,0.7514	-2536.01
0.2065,0.7935	-2529.10
0.2040,0.7960	-2525.05
0.2236,0.7764	-2524.47
0.2281,0.7719	-2528.48
0.1897,0.8103	-2502.25
0.2533,0.7467	-2539.74
0.1944,0.8056	-2516.72
0.2127,0.7873	-2502.93
0.2221,0.7779	-2541.91
0.2130,0.7870	-2522.58
0.1775,0.8225	-2506.62
0.2138,0.7862	-2523.92
0.1860,0.8140	-2503.59
0.1993,0.8007	-2507.02
0.1905,0.8095	-2529.77
0.1841,0.8159	-2516.96
0.2100,0.7900	-2537.04
0.1937,0.8063	-2529.55
0.1766,0.8234	-2503.57
0.2084,0.7916	-2511.74
0.2022,0.7978	-2515.46
0.2306,0.7694	-2538.30
0.2155,0.7845	-2539.49
0.1998,0.8002	-2515.38
0.2118,0.7882	-2513.33
0.2048,0.7952	-2529.12
0.2215,0.7785	-2534.38
0.2293,0.7707	-2524.93
0.2185,0.7815	-2517.77
0.1942,0.8058	-2516.72
0.2038,0.7962	-2522.33
0.2090,0.7910	-2515.78
0.2071,0.7929	-2526.41
0.2103,0.7897	-2511.89
0.1974,0.8026	-2532.16
0.1929,0.8071	-2518.15
0.2143,0.7857	-2536.93
0.2125,0.7875	-2519.94
0.1805,0.8195	-2520.18
0.1868,0.8132	-2521.26
0.2169,0.7831	-2539.46
0.1977,0.8023	-2499.92
0.1729,0.8271	-2492.72
0.1843,0.8157	-2516.95
0.1607,0.8393	-2484.69
0.1874,0.8126	-2510.96
0.2147,0.7853	-2530.44
0.1960,0.8040	-2506.84
0.1996,0.8004	-2515.38
0.1895,0.8105	-2496.43
0.2029,0.7971	-2527.79
0.1610,0.8390	-2514.40
0.2056,0.7944	-2522.35
0.2175,0.7825	-2522.81
0.1962,0.8038	-2498.38
0.1910,0.8090	-2509.53
0.2041,0.7959	-2522.33
0.2232,0.7768	-2531.92
0.1938,0.8062	-2528.12
0.2413,0.7587	-2535.37
0.1914,0.8086	-2526.82
0.1887,0.8113	-2513.87
0.1861,0.8139	-2533.10
0.2175,0.7825	-2525.37
0.2065,0.7935	-2519.68
0.2119,0.7881	-2536.98
0.1818,0.8182	-2505.04
0.1918,0.8082	-2518.17
0.1846,0.8154	-2510.99
0.1945,0.8055	-2512.45
0.1989,0.8011	-2519.54
0.2032,0.7968	-2533.25
0.2205,0.7795	-2529.31
0.1955,0.8045	-2532.28
0.1800,0.8200	-2514.15
0.1929,0.8071	-2516.72
0.2022,0.7978	-2533.30
0.2191,0.7809	-2522.91
0.2323,0.7677	-2534.77
0.2059,0.7941	-2508.86
0.1487,0.8513	-2509.69
0.2221,0.7779	-2543.16
0.2257,0.7743	-2523.39
0.1758,0.8242	-2495.87
0.2434,0.7566	-2538.94
0.1797,0.8203	-2530.87
0.1612,0.8388	-2502.83
0.2332,0.7668	-2534.82
0.2201,0.7799	-2524.24
0.1928,0.8072	-2512.43
0.2683,0.7317	-2547.46
0.1940,0.8060	-2525.26
0.1680,0.8320	-2505.53
0.2283,0.7717	-2521.18
0.2349,0.7651	-2520.74
0.2226,0.7774	-2524.39
0.2423,0.7577	-2537.73
0.1870,0.8130	-2521.25
0.1884,0.8116	-2524.10
0.2039,0.7961	-2514.15
0.2337,0.7663	-2533.66
0.2290,0.7710	-2534.61
0.2096,0.7904	-2535.72
0.2033,0.7967	-2519.59
0.2068,0.7932	-2514.31
0.1988,0.8012	-2522.32
0.2276,0.7724	-2521.11
0.2023,0.7977	-2527.80
0.2197,0.7803	-2529.28
0.2257,0.7743	-2529.56
0.2082,0.7918	-2530.42
0.2058,0.7942	-2518.30
0.2347,0.7653	-2531.36
0.2040,0.7960	-2516.88
0.2073,0.7927	-2522.39
0.2034,0.7966	-2523.69
0.2084,0.7916	-2538.43
0.2292,0.7708	-2528.56
0.1951,0.8049	-2522.39
0.2299,0.7701	-2528.61
0.1961,0.8039	-2528.01
0.2328,0.7672	-2521.68
0.1921,0.8079	-2519.60
0.2397,0.7603	-2523.70
0.1712,0.8288	-2511.63
0.1995,0.8005	-2513.98
0.1734,0.8266	-2497.41
0.2150,0.7850	-2516.20
0.2083,0.7917	-2530.42
0.2183,0.7817	-2526.68
0.1896,0.8104	-2499.34
0.1751,0.8249	-2514.45
0.1952,0.8048	-2522.38
0.2169,0.7831	-2536.89
0.1879,0.8121	-2538.77
0.2217,0.7783	-2528.10
0.1603,0.8397	-2527.76
0.2139,0.7861	-2544.74
0.1843,0.8157	-2522.89
0.2076,0.7924	-2526.41
0.1876,0.8124	-2509.49
0.1725,0.8275	-2525.64
0.1783,0.8217	-2520.35
0.2331,0.7669	-2533.62
0.1744,0.8256	-2505.18
0.2422,0.7578	-2529.74
0.2243,0.7757	-2517.08
0.1704,0.8296	-2483.21
0.1597,0.8403	-2511.28
0.2052,0.7948	-2535.89
0.1880,0.8120	-2513.88
0.2351,0.7649	-2532.57
0.2518,0.7482	-2545.05
0.1936,0.8064	-2533.84
0.1845,0.8155	-2527.34
0.2057,0.7943	-2533.16
0.1837,0.8163	-2518.46
0.2254,0.7746	-2538.18
0.2293,0.7707	-2533.41
0.1980,0.8020	-2509.74
0.1829,0.8171	-2499.05
0.1910,0.8090	-2519.63
0.1780,0.8220	-2506.61
0.2128,0.7872	-2527.80
0.2062,0.7938	-2521.02
0.2091,0.7909	-2518.44
0.1693,0.8307	-2507.03
0.2041,0.7959	-2527.78
0.1767,0.8233	-2503.57
0.2209,0.7791	-2533.11
0.1983,0.8017	-2506.96
0.1872,0.8128	-2522.71
0.1864,0.8136	-2515.39
0.2166,0.7834	-2522.76
0.1914,0.8086	-2535.47
0.2004,0.7996	-2523.70
0.2119,0.7881	-2521.22
0.1734,0.8266	-2519.28
0.1735,0.8265	-2509.90
0.2348,0.7652	-2529.00
0.1691,0.8309	-2515.01
0.2120,0.7880	-2526.47
0.2172,0.7828	-2522.79
0.2032,0.7968	-2520.96
0.2042,0.7958	-2520.97
0.2301,0.7699	-2515.33
0.1726,0.8274	-2498.99
0.2113,0.7887	-2519.87
0.2155,0.7845	-2523.99
0.1998,0.8002	-2540.35
0.1882,0.8118	-2515.34
0.2185,0.7815	-2536.89
0.1996,0.8004	-2500.10
0.2076,0.7924	-2529.09
0.2162,0.7838	-2517.58
0.2327,0.7673	-2543.14
0.1729,0.8271	-2513.07
0.1770,0.8230	-2518.94
0.1940,0.8060	-2518.14
0.2096,0.7904	-2527.76
0.2153,0.7847	-2523.98
0.2099,0.7901	-2534.39
0.1703,0.8297	-2503.79
0.1607,0.8393	-2506.18
0.2187,0.7813	-2530.52
0.2211,0.7789	-2519.26
0.2194,0.7806	-2529.27
0.1868,0.8132	-2521.26
0.2044,0.7956	-2519.62
0.1757,0.8243	-2508.23
0.2337,0.7663	-2527.72
0.2059,0.7941	-2512.91
0.2126,0.7874	-2534.34
0.1967,0.8033	-2533.61
0.2089,0.7911	-2510.44
0.2010,0.7990	-2518.17
0.2441,0.7559	-2540.11
0.1890,0.8110	-2521.15
0.2315,0.7685	-2540.73
0.2202,0.7798	-2524.24
0.2059,0.7941	-2511.56
0.2116,0.7884	-2523.84
0.2040,0.7960	-2538.67
0.1865,0.8135	-2509.49
0.2014,0.7986	-2518.18
0.2347,0.7653	-2524.27
0.2130,0.7870	-2522.58
0.2351,0.7649	-2538.47
0.2098,0.7902	-2517.15
0.1829,0.8171	-2536.47
0.2132,0.7868	-2517.36
0.2092,0.7908	-2522.44
0.2219,0.7781	-2525.60
0.2217,0.7783	-2535.64
0.2068,0.7932	-2522.38
0.1800,0.8200	-2520.21
0.1801,0.8199	-2509.60
0.2145,0.7855	-2531.73
0.2338,0.7662	-2527.73
0.1873,0.8127	-2515.36
0.2088,0.7912	-2523.76
0.2381,0.7619	-2544.43
0.2139,0.7861	-2518.71
0.2073,0.7927	-2529.09
0.2281,0.7719	-2524.82
0.1859,0.8141	-2519.83
0.1821,0.8179	-2520.06
0.2231,0.7769	-2528.17
0.2093,0.7907	-2521.11
0.2229,0.7771	-2541.90
0.2107,0.7893	-2521.17
0.1801,0.8199	-2521.72
0.1878,0.8122	-2532.93
0.2532,0.7468	-2540.81
0.2084,0.7916	-2537.09
0.2308,0.7692	-2538.31
0.1923,0.8077	-2515.29
0.2095,0.7905	-2518.46
0.1850,0.8150	-2519.88
0.2298,0.7702	-2535.86
0.2265,0.7735	-2546.80
0.2180,0.7820	-2522.84
0.1679,0.8321	-2507.13
0.2149,0.7851	-2531.74
0.1949,0.8051	-2512.46
0.2273,0.7727	-2533.32
0.2497,0.7503	-2525.11
0.2195,0.7805	-2534.35
0.1687,0.8313	-2508.67
0.2071,0.7929	-2531.78
0.2273,0.7727	-2534.54
0.1835,0.8165	-2514.00
0.2023,0.7977	-2515.46
0.2378,0.7622	-2530.44
0.1746,0.8254	-2520.71
0.2405,0.7595	-2529.56
0.2543,0.7457	-2554.90
0.2120,0.7880	-2527.79
0.2142,0.7858	-2518.74
0.2350,0.7650	-2525.48
0.1735,0.8265	-2498.97
0.2529,0.7471	-2535.37
0.2090,0.7910	-2530.42
0.2046,0.7954	-2503.33
0.2323,0.7677	-2532.38
0.2304,0.7696	-2540.70
0.1723,0.8277	-2511.55
0.2508,0.7492	-2546.08
0.1987,0.8013	-2530.69
0.2116,0.7884	-2512.00
0.2205,0.7795	-2530.57
0.2297,0.7703	-2543.11
0.2033,0.7967	-2529.15
0.2365,0.7635	-2532.67
0.2035,0.7965	-2527.78
0.2099,0.7901	-2529.09
0.1990,0.8010	-2530.68
0.2331,0.7669	-2543.15
0.2288,0.7712	-2524.88
0.2268,0.7732	-2522.26
0.1841,0.8159	-2509.51
0.1847,0.8153	-2508.02
0.1948,0.8052	-2519.55
0.1947,0.8053	-2529.49
0.1968,0.8032	-2504.07
0.2089,0.7911	-2517.10
0.1966,0.8034	-2520.95
0.2072,0.7928	-2517.02
0.1792,0.8208	-2524.84
0.2066,0.7934	-2534.48
0.1843,0.8157	-2502.07
0.2135,0.7865	-2523.90
0.2072,0.7928	-2523.73
0.2176,0.7824	-2525.37
0.2059,0.7941	-2515.61
0.1979,0.8021	-2522.33
0.1911,0.8089	-2516.74
0.1756,0.8244	-2517.51
0.2031,0.7969	-2519.59
0.2200,0.7800	-2531.82
0.2024,0.7976	-2526.43
0.2189,0.7811	-2530.52
0.2106,0.7894	-2534.38
0.1675,0.8325	-2500.75
0.2043,0.7957	-2507.38
0.2144,0.7856	-2518.74
0.2061,0.7939	-2526.41
0.1995,0.8005	-2515.37
0.2389,0.7611	-2542.14
0.2022,0.7978	-2511.34
0.1923,0.8077	-2531.08
0.1829,0.8171	-2502.04
0.2121,0.7879	-2540.91
0.1938,0.8062	-2518.14
0.2429,0.7571	-2527.53
0.2054,0.7946	-2548.05
0.1990,0.8010	-2523.71
0.1729,0.8271	-2511.51
0.2037,0.7963	-2527.78
0.1852,0.8148	-2521.35
0.2368,0.7632	-2529.18
0.1818,0.8182	-2502.03
0.1820,0.8180	-2523.07
0.1784,0.8216	-2527.98
0.2176,0.7824	-2529.21
0.1908,0.8092	-2536.98
0.2276,0.7724	-2539.44
0.2028,0.7972	-2514.11
0.1961,0.8039	-2519.54
0.1786,0.8214	-2515.75
0.2221,0.7779	-2533.14
0.1708,0.8292	-2511.67
0.2146,0.7854	-2523.95
0.1915,0.8085	-2551.30
0.1955,0.8045	-2526.62
0.1920,0.8080	-2515.29
0.2222,0.7778	-2519.36
0.1617,0.8383	-2497.84
0.2086,0.7914	-2522.42
0.1897,0.8103	-2515.32
0.2171,0.7829	-2520.22
0.2015,0.7985	-2501.66
0.1883,0.8117	-2503.65
0.1647,0.8353	-2510.66
0.2177,0.7823	-2534.33
0.1640,0.8360	-2507.48
0.2004,0.7996	-2518.16
0.2119,0.7881	-2521.22
0.1751,0.8249	-2522.21
0.2089,0.7911	-2519.77
0.2278,0.7722	-2528.46
0.1809,0.8191	-2517.13
0.1741,0.8259	-2519.21
0.2121,0.7879	-2517.29
0.1643,0.8357	-2505.82
0.1980,0.8020	-2519.54
0.2288,0.7712	-2520.02
0.1999,0.8001	-2512.61
0.1880,0.8120	-2522.66
0.2031,0.7969	-2527.79
0.1650,0.8350	-2500.90
0.1928,0.8072	-2499.54
0.2313,0.7687	-2534.72
0.1880,0.8120	-2525.59
0.1883,0.8117	-2513.88
0.1967,0.8033	-2526.57
0.1863,0.8137	-2513.92
0.2191,0.7809	-2552.14
0.1842,0.8158	-2525.88
0.2083,0.7917	-2522.41
0.1923,0.8077	-2519.60
0.1978,0.8022	-2520.94
0.1941,0.8059	-2536.64
0.2134,0.7866	-2542.16
0.1906,0.8094	-2529.76
0.2418,0.7582	-2547.97
0.2047,0.7953	-2529.12
0.1690,0.8310	-2522.97
0.1741,0.8259	-2503.64
0.2306,0.7694	-2528.66
0.2365,0.7635	-2542.05
0.1849,0.8151	-2510.99
0.1958,0.8042	-2525.19
0.1472,0.8528	-2513.51
0.1483,0.8517	-2497.53
0.1945,0.8055	-2538.03
0.2245,0.7755	-2524.54
0.1890,0.8110	-2532.80
0.1712,0.8288	-2506.91
0.1736,0.8264	-2503.65
0.1656,0.8344	-2507.33
0.1741,0.8259	-2519.21
0.2292,0.7708	-2537.04
0.1963,0.8037	-2533.63
0.1900,0.8100	-2505.16
0.1863,0.8137	-2497.70
0.1697,0.8303	-2511.77
0.1780,0.8220	-2508.14
0.1962,0.8038	-2525.18
0.2114,0.7886	-2533.04
0.1704,0.8296	-2516.45
0.1971,0.8029	-2525.15
0.1804,0.8196	-2512.61
0.1765,0.8235	-2514.35
0.2040,0.7960	-2510.08
0.2145,0.7855	-2529.14
0.1660,0.8340	-2516.97
0.2496,0.7504	-2537.21
0.1969,0.8031	-2506.89
0.2002,0.7998	-2516.78
0.2039,0.7961	-2544.12
0.2077,0.7923	-2537.12
0.1838,0.8162	-2519.95
0.2594,0.7406	-2555.05
0.1995,0.8005	-2529.26
0.2074,0.7926	-2537.14
0.1771,0.8229	-2520.46
0.1905,0.8095	-2528.33
0.1587,0.8413	-2513.08
0.2528,0.7472	-2548.37
0.2261,0.7739	-2545.57
0.1930,0.8070	-2500.99
0.1594,0.8406	-2498.01
0.1793,0.8207	-2518.75
0.2100,0.7900	-2506.56
0.2141,0.7859	-2523.93
0.2464,0.7536	-2533.56
0.1825,0.8175	-2511.04
0.1634,0.8366	-2494.47
0.2145,0.7855	-2534.33
0.1860,0.8140	-2518.35
0.2128,0.7872	-2519.95
0.2362,0.7638	-2550.26
0.2218,0.7782	-2514.30
0.1833,0.8167	-2531.93
0.1953,0.8047	-2512.47
0.1827,0.8173	-2524.51
0.1902,0.8098	-2526.90
0.2125,0.7875	-2535.66
0.1971,0.8029	-2501.28
0.1973,0.8027	-2509.71
0.2198,0.7802	-2521.68
0.1769,0.8231	-2508.18
0.1956,0.8044	-2525.20
0.2130,0.7870	-2519.96
0.2008,0.7992	-2518.17
0.2018,0.7982	-2497.57
0.2099,0.7901	-2527.76
0.2194,0.7806	-2524.19
0.1976,0.8024	-2508.32
0.2427,0.7573	-2552.55
0.1965,0.8035	-2533.62
0.2069,0.7931	-2518.35
0.1902,0.8098	-2521.10
0.2013,0.7987	-2534.72
0.2133,0.7867	-2522.59
0.2063,0.7937	-2530.45
0.2103,0.7897	-2523.80
0.1926,0.8074	-2516.72
0.2192,0.7808	-2529.26
0.2087,0.7913	-2507.77
0.2124,0.7876	-2522.55
0.1722,0.8278	-2511.56
0.2092,0.7908	-2527.76
0.2090,0.7910	-2522.43
0.2410,0.7590	-2544.52
0.2054,0.7946	-2534.53
0.2202,0.7798	-2539.41
0.1891,0.8109	-2529.88
0.2133,0.7867	-2516.06
0.2008,0.7992	-2525.08
0.2557,0.7443	-2543.18
0.2261,0.7739	-2538.19
0.1734,0.8266	-2520.84
0.1823,0.8177	-2512.54
0.2178,0.7822	-2510.04
0.2087,0.7913	-2527.75
0.2390,0.7610	-2534.03
0.2235,0.7765	-2530.69
0.2023,0.7977	-2512.71
0.1885,0.8115	-2508.04
0.2164,0.7836	-2530.46
0.1927,0.8073	-2516.72
0.2293,0.7707	-2540.69
0.2052,0.7948	-2534.53
0.2508,0.7492	-2536.24
0.1900,0.8100	-2512.41
0.2078,0.7922	-2514.37
0.1844,0.8156	-2521.40
0.2224,0.7776	-2534.40
0.1927,0.8073	-2525.32
0.1991,0.8009	-2540.42
0.1912,0.8088	-2529.72
0.1962,0.8038	-2505.44
0.1870,0.8130	-2512.43
0.2164,0.7836	-2525.32
0.1956,0.8044	-2512.47
0.1809,0.8191	-2512.59
0.1845,0.8155	-2518.42
0.1931,0.8069	-2506.71
0.1822,0.8178	-2520.05
0.2023,0.7977	-2525.06
0.2187,0.7813	-2526.70
0.1728,0.8272	-2511.52
0.1889,0.8111	-2509.50
0.1862,0.8138	-2512.44
0.1615,0.8385	-2509.39
0.2070,0.7930	-2522.38
0.2313,0.7687	-2527.52
0.1854,0.8146	-2533.18
0.2009,0.7991	-2511.27
0.1915,0.8085	-2512.42
0.2001,0.7999	-2519.54
0.2019,0.7981	-2515.44
