#isoforms=['ENSG00000101294.SE.1.A.up_ENSG00000101294.SE.1.A.SE1_ENSG00000101294.SE.1.A.dn','ENSG00000101294.SE.1.B.up_ENSG00000101294.SE.1.B.dn']	exon_lens=('ENSG00000101294.SE.1.A.up',99),('ENSG00000101294.SE.1.A.SE1',376),('ENSG00000101294.SE.1.A.dn',89),('ENSG00000101294.SE.1.B.up',99),('ENSG00000101294.SE.1.B.dn',89)	iters=5000	burn_in=500	lag=10	percent_accept=85.05	proposal_type=drift	counts=(0,0):418,(1,0):167,(1,1):222	assigned_counts=0:231,1:158	chrom=chr20	strand=+	mRNA_starts=31527484,31527484	mRNA_ends=31545035,31545035
sampled_psi	log_score
0.3206,0.6794	-2509.71
0.3085,0.6915	-2499.83
0.2596,0.7404	-2500.48
0.3058,0.6942	-2510.33
0.2920,0.7080	-2500.87
0.2950,0.7050	-2500.06
0.3405,0.6595	-2514.61
0.3100,0.6900	-2509.52
0.2816,0.7184	-2499.87
0.3452,0.6548	-2515.44
0.3015,0.6985	-2516.25
0.3371,0.6629	-2509.08
0.2990,0.7010	-2508.71
0.2931,0.7069	-2494.73
0.2766,0.7234	-2505.67
0.3377,0.6623	-2515.18
0.3000,0.7000	-2512.09
0.3005,0.6995	-2501.09
0.3259,0.6741	-2515.71
0.3332,0.6668	-2519.24
0.2988,0.7012	-2507.86
0.2815,0.7185	-2501.74
0.2942,0.7058	-2506.16
0.3166,0.6834	-2507.31
0.2906,0.7094	-2506.20
0.3301,0.6699	-2515.73
0.3155,0.6845	-2508.82
0.2691,0.7309	-2499.06
0.2694,0.7306	-2494.07
0.3228,0.6772	-2510.52
0.3018,0.6982	-2500.30
0.3294,0.6706	-2507.19
0.2846,0.7154	-2506.33
0.2851,0.7149	-2508.15
0.2797,0.7203	-2496.09
0.3118,0.6882	-2507.96
0.2800,0.7200	-2498.93
0.3201,0.6799	-2508.95
0.2905,0.7095	-2507.99
0.2716,0.7284	-2514.79
0.2765,0.7235	-2498.94
0.3411,0.6589	-2510.68
0.3088,0.6912	-2499.04
0.2914,0.7086	-2503.52
0.2821,0.7179	-2497.06
0.2740,0.7260	-2505.79
0.3242,0.6758	-2516.44
0.2836,0.7164	-2506.36
0.2908,0.7092	-2507.09
0.2781,0.7219	-2507.52
0.2790,0.7210	-2497.03
0.2575,0.7425	-2494.25
0.3349,0.6651	-2520.60
0.2739,0.7261	-2501.89
0.2843,0.7157	-2499.87
0.3182,0.6818	-2509.65
0.2789,0.7211	-2502.73
0.2563,0.7437	-2507.07
0.3181,0.6819	-2511.94
0.2590,0.7410	-2493.15
0.2902,0.7098	-2498.15
0.3349,0.6651	-2517.86
0.2710,0.7290	-2505.94
0.2559,0.7441	-2515.64
0.3670,0.6330	-2521.62
0.2439,0.7561	-2488.14
0.3007,0.6993	-2511.23
0.2933,0.7067	-2505.29
0.2994,0.7006	-2503.61
0.2514,0.7486	-2498.85
0.3128,0.6872	-2504.04
0.2493,0.7507	-2497.91
0.3278,0.6722	-2509.97
0.2831,0.7169	-2498.01
0.3278,0.6722	-2512.12
0.2452,0.7548	-2494.84
0.2852,0.7148	-2505.39
0.2996,0.7004	-2502.76
0.3222,0.6778	-2519.43
0.2507,0.7493	-2494.52
0.3251,0.6749	-2520.09
0.2650,0.7350	-2496.13
0.3084,0.6916	-2513.55
0.2758,0.7242	-2506.67
0.2597,0.7403	-2495.23
0.2680,0.7320	-2492.06
0.3144,0.6856	-2511.14
0.2656,0.7344	-2495.10
0.3383,0.6617	-2521.24
0.2824,0.7176	-2507.33
0.2497,0.7503	-2496.77
0.3300,0.6700	-2511.48
0.3143,0.6857	-2515.82
0.2809,0.7191	-2499.87
0.3372,0.6628	-2521.93
0.2890,0.7110	-2507.12
0.2506,0.7494	-2505.48
0.2604,0.7396	-2503.57
0.2949,0.7051	-2505.29
0.3097,0.6903	-2511.12
0.3193,0.6807	-2521.04
0.3186,0.6814	-2506.62
0.2217,0.7783	-2491.00
0.2788,0.7212	-2510.33
0.2735,0.7265	-2508.74
0.3110,0.6890	-2515.10
0.3170,0.6830	-2508.09
0.3378,0.6622	-2521.24
0.2495,0.7505	-2512.21
0.3127,0.6873	-2511.13
0.3099,0.6901	-2500.72
0.3191,0.6809	-2509.68
0.3708,0.6292	-2522.30
0.3065,0.6935	-2516.86
0.2383,0.7617	-2517.45
0.2766,0.7234	-2501.82
0.3148,0.6852	-2511.92
0.2910,0.7090	-2509.75
0.3446,0.6554	-2518.63
0.3000,0.7000	-2501.08
0.2889,0.7111	-2499.02
0.3192,0.6808	-2520.28
0.2974,0.7026	-2499.27
0.3053,0.6947	-2507.87
0.3044,0.6956	-2511.99
0.3071,0.6929	-2516.02
0.3059,0.6941	-2507.05
0.3076,0.6924	-2506.26
0.2947,0.7053	-2514.88
0.2985,0.7015	-2510.43
0.2790,0.7210	-2506.52
0.3369,0.6631	-2516.51
0.3329,0.6671	-2510.21
0.2926,0.7074	-2512.35
0.3005,0.6995	-2516.30
0.3116,0.6884	-2498.44
0.2748,0.7252	-2492.16
0.3267,0.6733	-2512.82
0.3031,0.6969	-2516.18
0.2882,0.7118	-2514.38
0.3035,0.6965	-2517.83
0.2536,0.7464	-2500.87
0.2781,0.7219	-2510.38
0.3000,0.7000	-2507.85
0.2953,0.7047	-2506.16
0.2916,0.7084	-2498.20
0.3234,0.6766	-2514.97
0.2681,0.7319	-2503.11
0.2832,0.7168	-2517.52
0.2972,0.7028	-2504.43
0.3194,0.6806	-2510.44
0.3149,0.6851	-2505.70
0.3113,0.6887	-2510.33
0.2564,0.7436	-2498.54
0.3059,0.6941	-2513.61
0.2752,0.7248	-2501.86
0.3805,0.6195	-2523.23
0.3298,0.6702	-2520.69
0.3362,0.6638	-2512.42
0.2401,0.7599	-2488.31
0.2938,0.7062	-2514.93
0.2999,0.7001	-2516.33
0.3685,0.6315	-2520.60
0.2877,0.7123	-2503.53
0.3371,0.6629	-2509.08
0.2574,0.7426	-2500.61
0.2701,0.7299	-2502.02
0.3236,0.6764	-2509.81
0.3420,0.6580	-2517.94
0.2914,0.7086	-2510.63
0.3319,0.6681	-2517.85
0.2768,0.7232	-2503.74
0.2840,0.7160	-2510.97
0.2834,0.7166	-2508.22
0.2970,0.7030	-2498.40
0.3120,0.6880	-2513.50
0.3202,0.6798	-2511.21
0.3088,0.6912	-2500.65
0.3020,0.6980	-2519.58
0.3328,0.6672	-2512.29
0.3063,0.6937	-2511.96
0.3578,0.6422	-2516.08
0.3594,0.6406	-2521.39
0.3341,0.6659	-2512.33
0.3113,0.6887	-2516.68
0.3022,0.6978	-2515.38
0.3003,0.6997	-2494.32
0.3164,0.6836	-2519.63
0.3111,0.6889	-2527.02
0.3239,0.6761	-2515.71
0.3217,0.6783	-2509.00
0.2665,0.7335	-2498.13
0.3159,0.6841	-2515.01
0.3084,0.6916	-2515.97
0.2740,0.7260	-2503.84
0.3063,0.6937	-2502.15
0.3269,0.6731	-2517.88
0.3040,0.6960	-2510.34
0.3443,0.6557	-2521.85
0.2991,0.7009	-2504.45
0.2784,0.7216	-2504.64
0.3365,0.6635	-2509.04
0.2845,0.7155	-2511.86
0.2774,0.7226	-2510.42
0.3717,0.6283	-2523.38
0.3271,0.6729	-2510.66
0.2960,0.7040	-2501.82
0.3270,0.6730	-2517.15
0.2983,0.7017	-2507.01
0.2603,0.7397	-2502.53
0.3807,0.6193	-2522.75
0.2892,0.7108	-2517.91
0.2894,0.7106	-2495.44
0.3519,0.6481	-2521.25
0.2959,0.7041	-2513.96
0.2441,0.7559	-2492.65
0.3771,0.6229	-2519.06
0.2694,0.7306	-2498.06
0.2970,0.7030	-2500.12
0.3586,0.6414	-2523.11
0.2828,0.7172	-2500.80
0.2331,0.7669	-2491.10
0.3359,0.6641	-2516.50
0.2884,0.7116	-2509.85
0.2796,0.7204	-2508.39
0.3655,0.6345	-2521.56
0.2519,0.7481	-2510.80
0.2449,0.7551	-2500.49
0.3382,0.6618	-2511.17
0.2590,0.7410	-2490.00
0.3116,0.6884	-2502.41
0.3752,0.6248	-2520.95
0.2594,0.7406	-2502.59
0.2716,0.7284	-2503.94
0.3395,0.6605	-2511.24
0.2902,0.7098	-2488.32
0.2940,0.7060	-2497.40
0.3185,0.6815	-2511.18
0.3038,0.6962	-2516.15
0.3379,0.6621	-2513.84
0.3274,0.6726	-2514.27
0.2993,0.7007	-2507.01
0.2615,0.7385	-2519.07
0.2898,0.7102	-2508.90
0.3067,0.6933	-2507.06
0.2899,0.7101	-2510.69
0.3091,0.6909	-2505.50
0.2738,0.7262	-2509.70
0.2822,0.7178	-2496.13
0.3024,0.6976	-2502.84
0.3072,0.6928	-2507.88
0.3370,0.6630	-2523.29
0.3115,0.6885	-2507.95
0.2964,0.7036	-2504.42
0.2894,0.7106	-2501.73
0.3019,0.6981	-2514.56
0.2815,0.7185	-2491.43
0.3771,0.6229	-2529.09
0.3116,0.6884	-2513.50
0.3107,0.6893	-2507.14
0.2949,0.7051	-2513.13
0.2754,0.7246	-2504.75
0.3332,0.6668	-2512.99
0.3562,0.6438	-2516.58
0.2833,0.7167	-2506.36
0.3321,0.6679	-2512.26
0.2929,0.7071	-2506.17
0.2880,0.7120	-2502.62
0.2913,0.7087	-2507.08
0.3286,0.6714	-2512.15
0.3281,0.6719	-2515.72
0.3021,0.6979	-2507.01
0.3094,0.6906	-2511.13
0.2611,0.7389	-2506.63
0.2857,0.7143	-2505.38
0.3117,0.6883	-2512.71
0.3164,0.6836	-2507.30
0.3309,0.6691	-2514.33
0.3194,0.6806	-2502.12
0.2563,0.7437	-2494.29
0.3157,0.6843	-2505.73
0.2673,0.7327	-2501.13
0.3164,0.6836	-2511.15
0.3080,0.6920	-2499.80
0.2972,0.7028	-2515.62
0.2760,0.7240	-2497.01
0.2688,0.7312	-2493.07
0.2795,0.7205	-2502.71
0.3302,0.6698	-2505.83
0.3249,0.6751	-2507.66
0.3156,0.6844	-2506.50
0.2997,0.7003	-2498.52
0.2718,0.7282	-2514.77
0.2882,0.7118	-2514.38
0.3124,0.6876	-2506.39
0.2864,0.7136	-2502.63
0.3142,0.6858	-2521.28
0.3209,0.6791	-2516.47
0.2953,0.7047	-2502.68
0.3190,0.6810	-2499.81
0.3292,0.6708	-2522.84
0.2987,0.7013	-2508.71
0.2614,0.7386	-2501.42
0.3248,0.6752	-2511.31
0.2749,0.7251	-2503.80
0.3747,0.6253	-2520.92
0.3493,0.6507	-2519.35
0.3074,0.6926	-2507.89
0.2699,0.7301	-2491.08
0.3101,0.6899	-2506.33
0.3023,0.6977	-2512.87
0.3179,0.6821	-2507.36
0.3792,0.6208	-2516.76
0.3343,0.6657	-2517.17
0.2796,0.7204	-2515.01
0.3409,0.6591	-2518.58
0.2859,0.7141	-2501.72
0.2889,0.7111	-2513.43
0.3406,0.6594	-2519.89
0.3553,0.6447	-2512.95
0.3054,0.6946	-2510.33
0.3616,0.6384	-2518.03
0.3328,0.6672	-2508.11
0.3124,0.6876	-2507.18
0.2743,0.7257	-2497.99
0.3581,0.6419	-2516.68
0.3365,0.6635	-2519.22
0.3664,0.6336	-2515.57
0.3566,0.6434	-2517.78
0.3131,0.6869	-2511.91
0.3076,0.6924	-2516.00
0.3546,0.6454	-2520.09
0.3624,0.6376	-2515.82
0.3469,0.6531	-2513.61
0.3616,0.6384	-2512.91
0.3135,0.6865	-2507.99
0.3414,0.6586	-2517.27
0.3603,0.6397	-2516.81
0.2731,0.7269	-2496.04
0.3262,0.6738	-2512.81
0.3465,0.6535	-2521.20
0.3073,0.6927	-2507.88
0.3278,0.6722	-2518.59
0.3411,0.6589	-2507.39
0.2819,0.7181	-2503.61
0.3262,0.6738	-2512.08
0.2991,0.7009	-2513.82
0.2815,0.7185	-2506.43
0.3264,0.6736	-2509.91
0.3178,0.6822	-2508.88
0.2874,0.7126	-2518.06
0.3323,0.6677	-2511.57
0.3011,0.6989	-2517.11
0.2650,0.7350	-2501.23
0.3209,0.6791	-2518.72
0.3173,0.6827	-2511.16
0.2922,0.7078	-2510.60
0.3383,0.6617	-2513.86
0.3028,0.6972	-2516.19
0.2946,0.7054	-2513.14
0.3611,0.6389	-2519.72
0.3338,0.6662	-2511.63
0.3262,0.6738	-2514.26
0.3493,0.6507	-2524.33
0.3089,0.6911	-2511.13
0.3057,0.6943	-2498.85
0.3526,0.6474	-2521.25
0.3182,0.6818	-2508.13
0.3319,0.6681	-2508.76
0.2949,0.7051	-2509.64
0.3154,0.6846	-2499.52
0.3230,0.6770	-2521.63
0.3437,0.6563	-2521.20
0.3058,0.6942	-2507.87
0.3423,0.6577	-2514.02
0.2800,0.7200	-2494.20
0.3047,0.6953	-2505.39
0.3101,0.6899	-2509.52
0.3736,0.6264	-2514.66
0.3498,0.6502	-2518.74
0.3506,0.6494	-2522.46
0.3237,0.6763	-2520.13
0.3137,0.6863	-2511.13
0.3234,0.6766	-2514.23
0.3836,0.6164	-2524.33
0.3499,0.6501	-2518.13
0.3558,0.6442	-2516.56
0.3169,0.6831	-2515.77
0.3254,0.6746	-2511.33
0.2996,0.7004	-2523.14
0.3522,0.6478	-2520.03
0.3232,0.6768	-2506.84
0.3278,0.6722	-2508.53
0.2949,0.7051	-2497.44
0.3087,0.6913	-2505.49
0.2781,0.7219	-2500.84
0.3729,0.6271	-2520.30
0.3507,0.6493	-2521.85
0.2742,0.7258	-2518.43
0.2890,0.7110	-2518.83
0.3600,0.6400	-2511.05
0.3063,0.6937	-2502.15
0.2924,0.7076	-2495.57
0.3015,0.6985	-2511.21
0.2929,0.7071	-2502.65
0.2503,0.7497	-2494.54
0.3359,0.6641	-2513.09
0.2979,0.7021	-2504.44
0.3219,0.6781	-2516.46
0.3522,0.6478	-2516.37
0.3163,0.6837	-2515.78
0.2673,0.7327	-2503.15
0.3069,0.6931	-2514.40
0.2987,0.7013	-2501.03
0.2565,0.7435	-2496.41
0.3580,0.6420	-2517.26
0.3268,0.6732	-2514.99
0.2815,0.7185	-2510.17
0.2902,0.7098	-2491.00
0.3193,0.6807	-2509.68
0.2827,0.7173	-2499.87
0.3396,0.6604	-2509.92
0.3391,0.6609	-2520.56
0.2890,0.7110	-2502.62
0.2741,0.7259	-2501.89
0.3254,0.6746	-2506.23
0.2698,0.7302	-2511.00
0.3230,0.6770	-2509.05
0.2735,0.7265	-2499.95
0.2743,0.7257	-2509.67
0.3189,0.6811	-2505.12
0.3175,0.6825	-2515.76
0.2871,0.7129	-2505.35
0.3015,0.6985	-2504.49
0.3040,0.6960	-2526.91
0.2325,0.7675	-2499.51
0.2748,0.7252	-2505.75
0.2805,0.7195	-2505.52
0.3045,0.6955	-2514.47
0.3224,0.6776	-2522.39
0.2972,0.7028	-2502.71
0.2593,0.7407	-2495.25
0.3018,0.6982	-2501.14
0.2610,0.7390	-2505.61
0.2628,0.7372	-2493.09
0.3006,0.6994	-2503.63
0.3131,0.6869	-2508.77
0.3315,0.6685	-2514.34
0.2682,0.7318	-2507.12
0.2835,0.7165	-2509.14
0.3120,0.6880	-2520.61
0.3057,0.6943	-2500.48
0.2888,0.7112	-2500.82
0.3221,0.6779	-2518.69
0.2947,0.7053	-2500.92
0.2887,0.7113	-2509.84
0.3388,0.6612	-2513.88
0.3379,0.6621	-2517.21
0.2601,0.7399	-2505.68
0.3170,0.6830	-2505.79
0.3072,0.6928	-2512.76
0.2859,0.7141	-2512.70
0.3508,0.6492	-2523.69
0.3183,0.6817	-2514.23
0.2795,0.7205	-2496.09
0.3206,0.6794	-2519.48
0.3008,0.6992	-2507.01
0.2877,0.7123	-2507.16
0.3106,0.6894	-2510.33
0.3362,0.6638	-2514.46
0.2641,0.7359	-2504.35
0.3086,0.6914	-2503.87
0.2803,0.7197	-2501.76
0.3048,0.6952	-2505.39
0.3300,0.6700	-2519.98
0.3109,0.6891	-2511.92
0.2977,0.7023	-2505.29
0.3177,0.6823	-2507.35
0.2359,0.7641	-2494.41
0.3129,0.6871	-2504.05
0.3067,0.6933	-2510.32
0.3090,0.6910	-2502.27
0.2899,0.7101	-2503.52
0.3141,0.6859	-2517.38
0.2317,0.7683	-2493.62
0.3169,0.6831	-2523.45
0.2766,0.7234	-2501.82
0.3065,0.6935	-2516.04
0.2869,0.7131	-2506.27
0.3480,0.6520	-2519.95
0.2265,0.7735	-2499.09
0.3427,0.6573	-2517.30
0.2885,0.7115	-2515.26
0.3143,0.6857	-2508.02
0.3013,0.6987	-2503.65
0.3520,0.6480	-2524.91
0.2704,0.7296	-2501.02
0.3366,0.6634	-2517.19
0.2881,0.7119	-2500.81
0.3205,0.6795	-2510.46
0.3081,0.6919	-2505.47
0.3525,0.6475	-2515.17
0.3073,0.6927	-2519.26
0.2927,0.7073	-2506.17
0.3100,0.6900	-2507.92
0.3387,0.6613	-2515.88
0.3072,0.6928	-2517.64
0.3683,0.6317	-2520.59
0.2785,0.7215	-2512.25
0.2814,0.7186	-2500.80
0.3193,0.6807	-2500.60
0.3012,0.6988	-2502.80
0.3289,0.6711	-2505.74
0.3307,0.6693	-2517.85
0.2666,0.7334	-2496.10
0.2530,0.7470	-2504.16
0.3021,0.6979	-2512.88
0.3117,0.6883	-2518.25
0.3331,0.6669	-2519.24
0.3361,0.6639	-2509.01
0.2910,0.7090	-2516.88
0.2776,0.7224	-2508.50
0.2707,0.7293	-2504.97
0.3344,0.6656	-2517.17
0.3085,0.6915	-2516.78
0.3611,0.6389	-2523.14
0.2562,0.7438	-2509.21
0.2565,0.7435	-2509.18
0.2702,0.7298	-2506.99
0.3120,0.6880	-2508.75
0.3160,0.6840	-2513.47
0.3615,0.6385	-2515.19
0.2545,0.7455	-2499.73
0.2772,0.7228	-2495.10
0.2476,0.7524	-2501.36
0.3377,0.6623	-2519.22
0.3001,0.6999	-2517.17
0.3675,0.6325	-2523.27
0.2934,0.7066	-2509.68
0.2669,0.7331	-2519.34
0.2649,0.7351	-2492.05
0.2871,0.7129	-2501.72
0.2844,0.7156	-2503.56
0.3775,0.6225	-2521.59
0.3115,0.6885	-2507.16
0.2983,0.7017	-2507.01
0.3000,0.7000	-2507.01
0.3167,0.6833	-2499.62
0.2864,0.7136	-2509.02
0.3417,0.6583	-2512.03
0.3218,0.6782	-2518.70
0.2996,0.7004	-2506.16
0.2872,0.7128	-2497.17
0.3074,0.6926	-2506.26
0.2540,0.7460	-2499.76
0.3342,0.6658	-2513.72
0.2712,0.7288	-2510.88
0.3012,0.6988	-2508.69
0.2768,0.7232	-2506.62
0.3499,0.6501	-2511.32
0.2405,0.7595	-2508.99
0.3133,0.6867	-2516.62
0.2861,0.7139	-2507.20
0.2970,0.7030	-2508.74
0.3023,0.6977	-2510.36
0.3324,0.6676	-2510.18
0.2740,0.7260	-2511.63
0.3018,0.6982	-2513.72
0.2754,0.7246	-2512.50
0.3070,0.6930	-2517.65
0.2911,0.7089	-2509.75
0.3836,0.6164	-2521.49
0.2908,0.7092	-2506.20
0.3035,0.6965	-2499.55
0.3013,0.6987	-2500.28
0.3528,0.6472	-2518.83
0.2892,0.7108	-2500.83
0.3517,0.6483	-2520.02
0.3024,0.6976	-2510.36
0.2694,0.7306	-2493.07
0.2926,0.7074	-2496.47
0.3149,0.6851	-2524.35
0.2862,0.7138	-2503.54
0.3339,0.6661	-2519.23
0.2929,0.7071	-2509.70
0.2830,0.7170	-2500.80
0.3299,0.6701	-2512.18
0.2912,0.7088	-2514.20
0.2896,0.7104	-2495.44
0.3093,0.6907	-2503.89
0.2951,0.7049	-2512.25
0.2952,0.7048	-2503.55
0.3229,0.6771	-2505.35
0.2789,0.7211	-2516.97
0.3058,0.6942	-2507.87
0.3161,0.6839	-2509.61
0.2846,0.7154	-2504.48
0.2874,0.7126	-2508.07
0.3151,0.6849	-2506.48
0.2747,0.7253	-2510.61
0.2831,0.7169	-2500.80
0.3252,0.6748	-2514.98
0.3064,0.6936	-2505.42
0.2544,0.7456	-2495.43
0.3168,0.6832	-2516.54
0.2764,0.7236	-2508.56
0.3037,0.6963	-2512.00
0.3362,0.6638	-2509.02
0.3156,0.6844	-2510.37
0.3035,0.6965	-2512.84
0.2845,0.7155	-2499.87
0.2555,0.7445	-2506.08
0.3066,0.6934	-2521.75
0.3500,0.6500	-2524.32
0.3270,0.6730	-2512.10
0.2807,0.7193	-2508.34
0.2803,0.7197	-2500.81
0.2825,0.7175	-2503.59
0.3883,0.6117	-2527.74
0.3097,0.6903	-2496.69
0.3154,0.6846	-2507.27
0.3068,0.6932	-2503.80
0.2824,0.7176	-2507.33
0.2807,0.7193	-2510.22
0.3408,0.6592	-2517.92
0.3529,0.6471	-2521.26
0.3480,0.6520	-2515.56
0.3297,0.6703	-2509.34
0.2713,0.7287	-2508.89
0.3371,0.6629	-2515.17
0.2784,0.7216	-2509.40
0.3219,0.6781	-2514.97
0.3511,0.6489	-2512.02
0.3360,0.6640	-2509.01
0.2749,0.7251	-2497.02
0.3295,0.6705	-2512.88
0.3090,0.6910	-2507.10
0.3052,0.6948	-2509.51
0.3242,0.6758	-2516.44
0.3275,0.6725	-2513.55
0.3124,0.6876	-2514.28
0.3799,0.6201	-2514.86
0.2996,0.7004	-2508.70
0.3111,0.6889	-2507.15
0.3458,0.6542	-2522.48
0.3336,0.6664	-2517.16
0.3154,0.6846	-2513.47
0.3733,0.6267	-2521.88
0.2980,0.7020	-2504.44
0.3614,0.6386	-2516.88
0.3071,0.6929	-2511.14
0.3044,0.6956	-2520.26
0.3100,0.6900	-2506.32
0.3521,0.6479	-2512.71
0.3481,0.6519	-2511.80
0.3605,0.6395	-2517.40
0.3125,0.6875	-2503.24
0.3276,0.6724	-2507.08
0.2996,0.7004	-2502.76
0.3157,0.6843	-2512.69
0.3344,0.6656	-2510.97
0.3503,0.6497	-2524.93
0.2676,0.7324	-2506.15
0.3187,0.6813	-2515.74
0.2906,0.7094	-2512.45
0.2977,0.7023	-2506.15
0.3138,0.6862	-2517.39
0.3531,0.6469	-2521.87
0.2902,0.7098	-2499.05
0.2957,0.7043	-2514.83
0.2993,0.7007	-2506.16
0.3256,0.6744	-2513.52
0.2896,0.7104	-2503.52
0.3459,0.6541	-2519.29
0.2813,0.7187	-2513.94
0.3023,0.6977	-2508.69
0.3459,0.6541	-2518.65
0.3187,0.6813	-2519.54
0.2955,0.7045	-2508.76
0.3143,0.6857	-2514.26
0.2527,0.7473	-2500.93
0.3014,0.6986	-2498.60
0.3345,0.6655	-2513.73
0.3272,0.6728	-2507.78
0.2641,0.7359	-2499.23
0.3122,0.6878	-2502.44
0.2503,0.7497	-2508.80
0.3182,0.6818	-2502.80
0.3305,0.6695	-2511.50
0.3459,0.6541	-2517.38
0.2562,0.7438	-2507.08
0.3398,0.6602	-2512.59
0.2630,0.7370	-2500.30
0.3720,0.6280	-2516.06
0.2872,0.7128	-2515.35
0.3118,0.6882	-2511.92
0.2776,0.7224	-2493.19
0.2949,0.7051	-2514.88
0.2708,0.7292	-2503.98
0.3232,0.6768	-2514.23
0.3178,0.6822	-2513.46
0.3472,0.6528	-2517.42
0.2931,0.7069	-2492.96
0.2599,0.7401	-2501.51
0.3214,0.6786	-2503.76
0.2895,0.7105	-2509.81
0.3241,0.6759	-2520.12
0.2811,0.7189	-2504.56
0.2662,0.7338	-2511.31
0.2507,0.7493	-2502.18
0.3584,0.6416	-2517.87
0.2391,0.7609	-2494.14
0.3146,0.6854	-2515.03
0.2800,0.7200	-2504.59
0.3007,0.6993	-2504.48
0.3155,0.6845	-2503.40
0.3318,0.6682	-2515.75
0.2857,0.7143	-2507.21
0.3138,0.6862	-2511.91
0.2849,0.7151	-2502.64
0.3173,0.6827	-2515.00
0.3144,0.6856	-2520.49
0.2884,0.7116	-2515.27
0.2939,0.7061	-2507.04
0.2748,0.7252	-2497.02
0.2743,0.7257	-2495.07
0.3525,0.6475	-2515.78
0.3206,0.6794	-2509.72
0.3022,0.6978	-2506.18
0.2666,0.7334	-2507.23
0.2940,0.7060	-2505.29
0.3306,0.6694	-2505.86
0.3659,0.6341	-2521.03
0.3326,0.6674	-2518.55
0.3077,0.6923	-2515.19
0.2730,0.7270	-2498.00
0.2891,0.7109	-2499.93
0.3979,0.6021	-2524.29
0.3475,0.6525	-2524.36
0.3486,0.6514	-2512.46
0.3096,0.6904	-2503.10
0.3093,0.6907	-2507.11
0.3037,0.6963	-2516.15
0.3867,0.6133	-2527.25
0.3493,0.6507	-2515.00
0.3120,0.6880	-2504.80
0.2822,0.7178	-2511.07
0.2939,0.7061	-2501.78
0.2591,0.7409	-2494.20
0.4053,0.5947	-2531.39
0.3476,0.6524	-2513.02
0.2913,0.7087	-2513.30
0.3323,0.6677	-2513.66
0.2499,0.7501	-2491.27
0.3036,0.6964	-2512.84
0.4240,0.5760	-2530.03
0.3170,0.6830	-2513.46
0.2928,0.7072	-2507.94
0.3424,0.6576	-2512.72
0.2862,0.7138	-2501.71
0.2880,0.7120	-2513.48
0.3757,0.6243	-2521.49
0.3279,0.6721	-2503.51
0.3091,0.6909	-2515.95
0.3143,0.6857	-2502.55
0.3282,0.6718	-2520.73
0.3062,0.6938	-2511.14
0.3926,0.6074	-2524.79
0.3483,0.6517	-2510.56
0.2580,0.7420	-2504.80
0.3360,0.6640	-2513.78
0.3003,0.6997	-2508.70
0.3102,0.6898	-2519.12
0.3823,0.6177	-2522.84
0.3922,0.6078	-2527.40
0.2674,0.7326	-2488.03
0.3166,0.6834	-2519.62
0.2863,0.7137	-2498.06
0.3084,0.6916	-2507.90
0.3940,0.6060	-2532.63
0.3561,0.6439	-2525.46
0.2421,0.7579	-2506.47
0.3251,0.6749	-2516.44
0.3063,0.6937	-2516.86
0.3402,0.6598	-2515.26
0.3961,0.6039	-2521.63
0.3430,0.6570	-2521.85
0.2419,0.7581	-2497.36
0.2675,0.7325	-2501.13
0.2773,0.7227	-2505.64
0.3089,0.6911	-2514.35
0.3991,0.6009	-2521.51
0.3605,0.6395	-2524.28
0.2467,0.7533	-2483.58
0.2775,0.7225	-2508.50
0.2818,0.7182	-2504.54
0.2808,0.7192	-2502.69
0.3097,0.6903	-2510.32
0.3224,0.6776	-2509.03
0.2650,0.7350	-2494.09
0.3105,0.6895	-2507.13
0.2588,0.7412	-2502.63
0.2937,0.7063	-2515.82
0.3382,0.6618	-2517.21
0.3318,0.6682	-2510.15
0.2824,0.7176	-2506.39
0.3099,0.6901	-2507.92
0.3272,0.6728	-2518.59
0.2988,0.7012	-2506.15
0.2747,0.7253	-2500.90
0.3281,0.6719	-2510.70
0.2618,0.7382	-2494.14
0.3362,0.6638	-2521.95
0.3561,0.6439	-2518.35
0.3106,0.6894	-2505.54
0.2793,0.7207	-2504.61
0.3150,0.6850	-2511.92
0.3245,0.6755	-2513.51
0.3102,0.6898	-2499.94
0.3913,0.6087	-2521.63
0.2892,0.7108	-2500.83
0.2676,0.7324	-2494.07
0.3163,0.6837	-2503.45
0.3120,0.6880	-2512.71
0.3381,0.6619	-2511.16
0.3717,0.6283	-2519.19
0.3452,0.6548	-2514.16
0.2732,0.7268	-2489.19
0.2758,0.7242	-2509.56
0.3288,0.6712	-2510.01
0.3425,0.6575	-2519.25
0.3812,0.6188	-2523.75
0.3311,0.6689	-2516.44
0.2972,0.7028	-2495.82
0.2930,0.7070	-2509.70
0.2885,0.7115	-2494.50
0.3391,0.6609	-2517.22
0.3424,0.6576	-2514.68
0.3643,0.6357	-2518.74
0.3308,0.6692	-2517.15
0.3164,0.6836	-2515.01
0.3089,0.6911	-2505.49
0.3089,0.6911	-2512.74
0.3272,0.6728	-2509.22
0.3563,0.6437	-2523.68
