#isoforms=['ENSG00000101294.SE.1.A.up_ENSG00000101294.SE.1.A.SE1_ENSG00000101294.SE.1.A.dn','ENSG00000101294.SE.1.B.up_ENSG00000101294.SE.1.B.dn']	exon_lens=('ENSG00000101294.SE.1.A.up',99),('ENSG00000101294.SE.1.A.SE1',376),('ENSG00000101294.SE.1.A.dn',89),('ENSG00000101294.SE.1.B.up',99),('ENSG00000101294.SE.1.B.dn',89)	iters=5000	burn_in=500	lag=10	percent_accept=89.85	proposal_type=drift	counts=(0,0):134,(1,0):71,(1,1):97	assigned_counts=0:93,1:75	chrom=chr20	strand=+	mRNA_starts=31527484,31527484	mRNA_ends=31545035,31545035
sampled_psi	log_score
0.2883,0.7117	-1086.59
0.3402,0.6598	-1087.13
0.2707,0.7293	-1079.29
0.2491,0.7509	-1081.87
0.3093,0.6907	-1084.65
0.3227,0.6773	-1081.06
0.2511,0.7489	-1085.06
0.3378,0.6622	-1083.73
0.2715,0.7285	-1083.23
0.2197,0.7803	-1076.08
0.2977,0.7023	-1086.39
0.3344,0.6656	-1091.19
0.2569,0.7431	-1070.96
0.3214,0.6786	-1085.50
0.2545,0.7455	-1077.36
0.2760,0.7240	-1081.21
0.3281,0.6719	-1084.15
0.3374,0.6626	-1091.14
0.2815,0.7185	-1080.23
0.3662,0.6338	-1086.66
0.2517,0.7483	-1081.76
0.2773,0.7227	-1080.24
0.3050,0.6950	-1087.94
0.3440,0.6560	-1082.67
0.2484,0.7516	-1078.57
0.3483,0.6517	-1094.79
0.2397,0.7603	-1074.23
0.2787,0.7213	-1074.53
0.2949,0.7051	-1085.57
0.3419,0.6581	-1087.81
0.2251,0.7749	-1075.83
0.4191,0.5809	-1093.94
0.2468,0.7532	-1075.27
0.2468,0.7532	-1088.66
0.3109,0.6891	-1085.45
0.3356,0.6644	-1088.44
0.2566,0.7434	-1084.78
0.3740,0.6260	-1092.66
0.2727,0.7273	-1080.26
0.2417,0.7583	-1070.77
0.2903,0.7097	-1085.65
0.3377,0.6623	-1084.41
0.2248,0.7752	-1082.04
0.3157,0.6843	-1083.14
0.2839,0.7161	-1082.09
0.2647,0.7353	-1074.23
0.2726,0.7274	-1074.37
0.3269,0.6731	-1084.84
0.2377,0.7623	-1085.91
0.2647,0.7353	-1085.47
0.2874,0.7126	-1085.71
0.3172,0.6828	-1083.17
0.2433,0.7567	-1079.85
0.3329,0.6671	-1086.35
0.2462,0.7538	-1084.23
0.2977,0.7023	-1078.66
0.2782,0.7218	-1078.33
0.2799,0.7201	-1080.23
0.2848,0.7152	-1085.77
0.3074,0.6926	-1086.27
0.2292,0.7708	-1085.38
0.2920,0.7080	-1083.84
0.2582,0.7418	-1077.32
0.2765,0.7235	-1079.28
0.3428,0.6572	-1087.82
0.2527,0.7473	-1070.88
0.2219,0.7781	-1083.50
0.3024,0.6976	-1083.81
0.2617,0.7383	-1087.67
0.2955,0.7045	-1090.77
0.3491,0.6509	-1088.54
0.2718,0.7282	-1083.22
0.2489,0.7511	-1080.77
0.3129,0.6871	-1087.03
0.3125,0.6875	-1088.61
0.2544,0.7456	-1069.84
0.3350,0.6650	-1086.38
0.2496,0.7504	-1073.04
0.2510,0.7490	-1080.70
0.3892,0.6108	-1087.78
0.2800,0.7200	-1083.07
0.2794,0.7206	-1081.18
0.3198,0.6802	-1085.49
0.2519,0.7481	-1074.14
0.2136,0.7864	-1082.93
0.2961,0.7039	-1084.69
0.2589,0.7411	-1082.58
0.2878,0.7122	-1092.04
0.2992,0.7008	-1082.11
0.2794,0.7206	-1085.92
0.2271,0.7729	-1081.87
0.2742,0.7258	-1088.04
0.2946,0.7054	-1077.71
0.3074,0.6926	-1086.27
0.3044,0.6956	-1080.51
0.2531,0.7469	-1077.38
0.2355,0.7645	-1077.84
0.2885,0.7115	-1085.68
0.3286,0.6714	-1089.16
0.3263,0.6737	-1087.73
0.3235,0.6765	-1086.26
0.3152,0.6848	-1081.58
0.2625,0.7375	-1082.46
0.2849,0.7151	-1087.61
0.2841,0.7159	-1083.01
0.3571,0.6429	-1092.77
0.2849,0.7151	-1085.76
0.3266,0.6734	-1083.39
0.2410,0.7590	-1079.95
0.2627,0.7373	-1081.42
0.2551,0.7449	-1081.64
0.3911,0.6089	-1092.31
0.2742,0.7258	-1077.33
0.3362,0.6638	-1089.80
0.2193,0.7807	-1082.44
0.2789,0.7211	-1084.98
0.2615,0.7385	-1085.61
0.3711,0.6289	-1088.98
0.2647,0.7353	-1080.36
0.3342,0.6658	-1085.68
0.2413,0.7587	-1078.79
0.2846,0.7154	-1083.01
0.2922,0.7078	-1082.96
0.3466,0.6534	-1087.87
0.2883,0.7117	-1084.78
0.2269,0.7731	-1075.76
0.2353,0.7647	-1079.02
0.2753,0.7247	-1085.08
0.2565,0.7435	-1084.79
0.3064,0.6936	-1082.19
0.3266,0.6734	-1081.22
0.2562,0.7438	-1084.80
0.2598,0.7402	-1084.64
0.3312,0.6688	-1082.82
0.2724,0.7276	-1086.16
0.3249,0.6751	-1081.88
0.3079,0.6921	-1091.94
0.2711,0.7289	-1077.31
0.2863,0.7137	-1090.30
0.3169,0.6831	-1091.61
0.2952,0.7048	-1085.56
0.3328,0.6672	-1087.74
0.3201,0.6799	-1086.24
0.3020,0.6980	-1078.79
0.3534,0.6466	-1089.20
0.3827,0.6173	-1090.77
0.3032,0.6968	-1083.82
0.3716,0.6284	-1095.30
0.3220,0.6780	-1087.00
0.3272,0.6728	-1088.45
0.3376,0.6624	-1085.07
0.4366,0.5634	-1095.12
0.2913,0.7087	-1085.63
0.3887,0.6113	-1091.82
0.2965,0.7035	-1085.55
0.3225,0.6775	-1084.77
0.3358,0.6642	-1091.85
0.4317,0.5683	-1094.22
0.2433,0.7567	-1074.18
0.4152,0.5848	-1094.89
0.3038,0.6962	-1083.82
0.3224,0.6776	-1086.25
0.3224,0.6776	-1084.02
0.4215,0.5785	-1091.13
0.2407,0.7593	-1075.36
0.4127,0.5873	-1091.36
0.2847,0.7153	-1080.24
0.3383,0.6617	-1091.80
0.3255,0.6745	-1084.82
0.3698,0.6302	-1090.54
0.2727,0.7273	-1085.17
0.4426,0.5574	-1092.69
0.2952,0.7048	-1091.65
0.3283,0.6717	-1089.88
0.3365,0.6635	-1087.76
0.3517,0.6483	-1087.35
0.2452,0.7548	-1083.16
0.3829,0.6171	-1091.25
0.2955,0.7045	-1088.17
0.3278,0.6722	-1087.73
0.3570,0.6430	-1085.13
0.3255,0.6745	-1084.82
0.2220,0.7780	-1078.47
0.4003,0.5997	-1090.85
0.2635,0.7365	-1089.63
0.3215,0.6785	-1083.26
0.3416,0.6584	-1093.06
0.2858,0.7142	-1083.00
0.2433,0.7567	-1078.72
0.3955,0.6045	-1093.23
0.2730,0.7270	-1086.13
0.3492,0.6508	-1090.41
0.3652,0.6348	-1089.38
0.2750,0.7250	-1077.34
0.2986,0.7014	-1079.54
0.3556,0.6444	-1092.79
0.2642,0.7358	-1088.56
0.3664,0.6336	-1091.59
0.3320,0.6680	-1091.93
0.2691,0.7309	-1079.30
0.3356,0.6644	-1087.76
0.3586,0.6414	-1088.10
0.2769,0.7231	-1085.04
0.4182,0.5818	-1090.29
0.3455,0.6545	-1084.67
0.3007,0.6993	-1083.81
0.3137,0.6863	-1085.46
0.3645,0.6355	-1088.25
0.2924,0.7076	-1087.37
0.3817,0.6183	-1086.41
0.3261,0.6739	-1084.10
0.2866,0.7134	-1084.81
0.3248,0.6752	-1083.34
0.3912,0.6088	-1091.87
0.2904,0.7096	-1082.96
0.3462,0.6538	-1087.23
0.3659,0.6341	-1084.99
0.2934,0.7066	-1083.83
0.2721,0.7279	-1089.12
0.3429,0.6571	-1090.43
0.2300,0.7700	-1082.90
0.3719,0.6281	-1091.09
0.3423,0.6577	-1084.55
0.2970,0.7030	-1078.65
0.2749,0.7251	-1076.37
0.3244,0.6756	-1084.06
0.2015,0.7985	-1084.15
0.3858,0.6142	-1092.24
0.3313,0.6687	-1094.76
0.2869,0.7131	-1077.52
0.2451,0.7549	-1079.79
0.3148,0.6852	-1086.24
0.2360,0.7640	-1077.82
0.3660,0.6340	-1094.89
0.3027,0.6973	-1077.97
0.3335,0.6665	-1089.82
0.2250,0.7750	-1070.89
0.2874,0.7126	-1094.79
0.2530,0.7470	-1073.05
0.2963,0.7037	-1085.55
0.2716,0.7284	-1084.22
0.3619,0.6381	-1085.35
0.2720,0.7280	-1083.22
0.2524,0.7476	-1075.22
0.3023,0.6977	-1085.49
0.2853,0.7147	-1090.35
0.2640,0.7360	-1077.29
0.4041,0.5959	-1091.00
0.2351,0.7649	-1084.92
0.2574,0.7426	-1084.75
0.2853,0.7147	-1084.84
0.2577,0.7423	-1081.56
0.2596,0.7404	-1072.07
0.4321,0.5679	-1093.41
0.2403,0.7597	-1082.27
0.2656,0.7344	-1087.46
0.2908,0.7092	-1087.42
0.2992,0.7008	-1090.62
0.2911,0.7089	-1086.52
0.3653,0.6347	-1087.17
0.2236,0.7764	-1072.16
0.2466,0.7534	-1079.74
0.2689,0.7311	-1081.30
0.3226,0.6774	-1090.71
0.2267,0.7733	-1067.18
0.3318,0.6682	-1093.34
0.2223,0.7777	-1073.45
0.2477,0.7523	-1083.03
0.2992,0.7008	-1082.11
0.3287,0.6713	-1089.87
0.2817,0.7183	-1080.23
0.3100,0.6900	-1079.85
0.2567,0.7433	-1074.15
0.2245,0.7755	-1084.53
0.3520,0.6480	-1088.58
0.3390,0.6610	-1086.45
0.2942,0.7058	-1085.58
0.3300,0.6700	-1087.73
0.3141,0.6859	-1080.77
0.2261,0.7739	-1078.25
0.4032,0.5968	-1094.10
0.3577,0.6423	-1089.84
0.2437,0.7563	-1080.97
0.3071,0.6929	-1086.27
0.2438,0.7562	-1082.10
0.2557,0.7443	-1082.69
0.3994,0.6006	-1088.78
0.3444,0.6556	-1083.98
0.2768,0.7232	-1080.24
0.3249,0.6751	-1083.34
0.2690,0.7310	-1082.30
0.2752,0.7248	-1079.28
0.3655,0.6345	-1086.63
0.3104,0.6896	-1094.23
0.2788,0.7212	-1084.04
0.2948,0.7052	-1086.44
0.2888,0.7112	-1080.27
0.2786,0.7214	-1083.09
0.3572,0.6428	-1091.60
0.3127,0.6873	-1081.52
0.2702,0.7298	-1080.28
0.2883,0.7117	-1082.07
0.2971,0.7029	-1089.84
0.3376,0.6624	-1088.44
0.3391,0.6609	-1081.11
0.2801,0.7199	-1087.78
0.2823,0.7177	-1079.30
0.2716,0.7284	-1078.30
0.2774,0.7226	-1084.07
0.3435,0.6565	-1088.48
0.3269,0.6731	-1088.45
0.2388,0.7612	-1077.72
0.2715,0.7285	-1094.09
0.2677,0.7323	-1080.31
0.3474,0.6526	-1092.93
0.3044,0.6956	-1083.82
0.3253,0.6747	-1087.00
0.2999,0.7001	-1084.66
0.2967,0.7033	-1082.09
0.3071,0.6929	-1085.46
0.3312,0.6688	-1087.03
0.2879,0.7121	-1080.26
0.3213,0.6787	-1083.26
0.3142,0.6858	-1091.70
0.3075,0.6925	-1082.21
0.3626,0.6374	-1087.64
0.2898,0.7102	-1080.28
0.2983,0.7017	-1080.39
0.3904,0.6096	-1093.19
0.3048,0.6952	-1077.22
0.2973,0.7027	-1082.96
0.3282,0.6718	-1089.88
0.3148,0.6852	-1089.35
0.3177,0.6823	-1083.18
0.3653,0.6347	-1089.38
0.3156,0.6844	-1088.56
0.2953,0.7047	-1080.34
0.2993,0.7007	-1085.51
0.3438,0.6562	-1083.31
0.3165,0.6835	-1090.86
0.3532,0.6468	-1083.76
0.2988,0.7012	-1086.37
0.3104,0.6896	-1087.85
0.2716,0.7284	-1086.19
0.3195,0.6805	-1084.73
0.2599,0.7401	-1086.73
0.3368,0.6632	-1090.47
0.2753,0.7247	-1085.08
0.2872,0.7128	-1080.26
0.2765,0.7235	-1078.32
0.3251,0.6749	-1084.08
0.2620,0.7380	-1082.48
0.3768,0.6232	-1090.15
0.3061,0.6939	-1082.19
0.2917,0.7083	-1074.97
0.2874,0.7126	-1083.89
0.3464,0.6536	-1092.95
0.2692,0.7308	-1080.30
0.3525,0.6475	-1084.33
0.2562,0.7438	-1079.47
0.2950,0.7050	-1087.31
0.2971,0.7029	-1086.40
0.3244,0.6756	-1087.73
0.3097,0.6903	-1083.85
0.3228,0.6772	-1084.03
0.2396,0.7604	-1089.24
0.2453,0.7547	-1082.03
0.3257,0.6743	-1084.09
0.3304,0.6696	-1087.73
0.3316,0.6684	-1087.03
0.3603,0.6397	-1087.57
0.2579,0.7421	-1079.44
0.3092,0.6908	-1085.45
0.3488,0.6512	-1091.03
0.3009,0.6991	-1081.28
0.2724,0.7276	-1083.21
0.3310,0.6690	-1083.51
0.2703,0.7297	-1082.27
0.3536,0.6464	-1089.81
0.3453,0.6547	-1089.14
0.2920,0.7080	-1082.07
0.2497,0.7503	-1077.44
0.3596,0.6404	-1092.17
0.3034,0.6966	-1081.32
0.3574,0.6426	-1095.12
0.3751,0.6249	-1089.09
0.2424,0.7576	-1076.47
0.2347,0.7653	-1080.23
0.3370,0.6630	-1085.74
0.2984,0.7016	-1082.10
0.2874,0.7126	-1078.44
0.3160,0.6840	-1082.38
0.2435,0.7565	-1078.71
0.2919,0.7081	-1090.93
0.3426,0.6574	-1085.87
0.2893,0.7107	-1079.38
0.3007,0.6993	-1090.56
0.2853,0.7147	-1072.90
0.1847,0.8153	-1065.55
0.3028,0.6972	-1090.49
0.3015,0.6985	-1082.97
0.3192,0.6808	-1076.39
0.3601,0.6399	-1086.99
0.3022,0.6978	-1091.34
0.1684,0.8316	-1069.97
0.3512,0.6488	-1088.57
0.3488,0.6512	-1086.66
0.3128,0.6872	-1088.60
0.3690,0.6310	-1085.17
0.2823,0.7177	-1082.10
0.1909,0.8091	-1071.02
0.3423,0.6577	-1087.17
0.3483,0.6517	-1089.78
0.3882,0.6118	-1090.90
0.3140,0.6860	-1085.46
0.3495,0.6505	-1086.68
0.2119,0.7881	-1071.26
0.3497,0.6503	-1086.06
0.3296,0.6704	-1087.02
0.3435,0.6565	-1091.07
0.3285,0.6715	-1084.15
0.3178,0.6822	-1086.24
0.2413,0.7587	-1077.64
0.3352,0.6648	-1087.75
0.2737,0.7263	-1087.08
0.3228,0.6772	-1081.81
0.2800,0.7200	-1081.18
0.3667,0.6333	-1086.13
0.2341,0.7659	-1071.96
0.2706,0.7294	-1081.27
0.2909,0.7091	-1081.18
0.3391,0.6609	-1088.45
0.2798,0.7202	-1072.67
0.3737,0.6263	-1090.60
0.2244,0.7756	-1078.34
0.2199,0.7801	-1079.87
0.2679,0.7321	-1084.33
0.3275,0.6725	-1081.25
0.2946,0.7054	-1085.57
0.3604,0.6396	-1093.88
0.2025,0.7975	-1078.55
0.2134,0.7866	-1085.56
0.2675,0.7325	-1084.35
0.2763,0.7237	-1075.43
0.3064,0.6936	-1092.00
0.3461,0.6539	-1085.96
0.2182,0.7818	-1076.15
0.2192,0.7808	-1078.64
0.2477,0.7523	-1079.70
0.2579,0.7421	-1076.27
0.2749,0.7251	-1087.04
0.3310,0.6690	-1084.22
0.2091,0.7909	-1075.37
0.2418,0.7582	-1077.63
0.2436,0.7564	-1080.98
0.2152,0.7848	-1075.02
0.2960,0.7040	-1084.69
0.2833,0.7167	-1076.53
0.2289,0.7711	-1080.54
0.2532,0.7468	-1071.97
0.2604,0.7396	-1085.66
0.1996,0.8004	-1080.19
0.2769,0.7231	-1084.08
0.2704,0.7296	-1080.28
0.2403,0.7597	-1071.92
0.2515,0.7485	-1081.77
0.2422,0.7578	-1082.18
0.2231,0.7769	-1087.14
0.2673,0.7327	-1074.27
0.2551,0.7449	-1081.64
0.2609,0.7391	-1084.60
0.2556,0.7444	-1072.01
0.2332,0.7668	-1074.35
0.2380,0.7620	-1073.09
0.2545,0.7455	-1078.44
0.2438,0.7562	-1076.44
0.2502,0.7498	-1078.53
0.2555,0.7445	-1080.56
0.2161,0.7839	-1082.71
0.2156,0.7844	-1073.71
0.2939,0.7061	-1078.57
0.2623,0.7377	-1079.37
0.2663,0.7337	-1084.39
0.3043,0.6957	-1085.47
0.2520,0.7480	-1082.84
0.2379,0.7621	-1082.41
0.3011,0.6989	-1081.28
0.2530,0.7470	-1080.63
0.2962,0.7038	-1089.88
0.3219,0.6781	-1085.51
0.2382,0.7618	-1076.58
0.2391,0.7609	-1082.34
0.2985,0.7015	-1079.54
0.2519,0.7481	-1079.58
0.2925,0.7075	-1083.84
0.3235,0.6765	-1092.90
0.2298,0.7702	-1079.28
0.2480,0.7520	-1075.25
0.3249,0.6751	-1082.61
0.2722,0.7278	-1086.16
0.2500,0.7500	-1074.14
0.2970,0.7030	-1078.65
0.2674,0.7326	-1085.36
0.2686,0.7314	-1075.29
0.3148,0.6852	-1082.35
0.3029,0.6971	-1081.31
0.2702,0.7298	-1080.28
0.2997,0.7003	-1082.96
0.2869,0.7131	-1080.25
0.2781,0.7219	-1079.28
0.2679,0.7321	-1082.32
0.3183,0.6817	-1088.52
0.2677,0.7323	-1087.36
0.2999,0.7001	-1089.75
0.2451,0.7549	-1080.91
0.2593,0.7407	-1082.56
0.2722,0.7278	-1083.22
0.3154,0.6846	-1089.34
0.2743,0.7257	-1080.25
0.3421,0.6579	-1089.78
0.2513,0.7487	-1078.50
0.2497,0.7503	-1075.24
0.2590,0.7410	-1073.11
0.3144,0.6856	-1082.34
0.2764,0.7236	-1082.16
0.3192,0.6808	-1088.51
0.2649,0.7351	-1087.50
0.2501,0.7499	-1076.33
0.2562,0.7438	-1081.61
0.3167,0.6833	-1083.93
0.2738,0.7262	-1083.18
0.3302,0.6698	-1085.61
0.2429,0.7571	-1083.28
0.2527,0.7473	-1080.64
0.3097,0.6903	-1079.84
0.3214,0.6786	-1086.25
0.2634,0.7366	-1084.49
0.3519,0.6481	-1087.96
0.2383,0.7617	-1071.93
0.3027,0.6973	-1085.48
0.3098,0.6902	-1081.45
0.3117,0.6883	-1084.66
0.2800,0.7200	-1086.84
0.3663,0.6337	-1086.66
0.2122,0.7878	-1076.50
0.3676,0.6324	-1089.43
0.3214,0.6786	-1089.99
0.3323,0.6677	-1085.64
0.3190,0.6810	-1090.79
0.3715,0.6285	-1093.19
0.2221,0.7779	-1082.22
0.3446,0.6554	-1090.42
0.2875,0.7125	-1073.90
0.3231,0.6769	-1087.00
0.3560,0.6440	-1092.79
0.3777,0.6223	-1091.17
0.2481,0.7519	-1069.71
0.3368,0.6632	-1089.12
0.3024,0.6976	-1077.13
0.3251,0.6749	-1081.16
0.3415,0.6585	-1087.81
0.3798,0.6202	-1090.22
0.2638,0.7362	-1077.29
0.3395,0.6605	-1085.79
0.3121,0.6879	-1084.66
0.3553,0.6447	-1093.39
0.3780,0.6220	-1087.69
0.3432,0.6568	-1085.88
0.3195,0.6805	-1082.46
0.2879,0.7121	-1082.98
0.3280,0.6720	-1088.45
0.3366,0.6634	-1086.41
0.4140,0.5860	-1095.58
0.2927,0.7073	-1089.13
0.3211,0.6789	-1085.50
0.3200,0.6800	-1089.26
0.3785,0.6215	-1089.69
0.2863,0.7137	-1080.25
0.3522,0.6478	-1087.36
0.3067,0.6933	-1079.75
0.3438,0.6562	-1089.13
0.3671,0.6329	-1088.87
0.3972,0.6028	-1091.99
0.2926,0.7074	-1084.72
0.3164,0.6836	-1088.55
0.3108,0.6892	-1080.68
0.3512,0.6488	-1085.50
0.3633,0.6367	-1089.34
0.3688,0.6312	-1092.68
0.2657,0.7343	-1082.37
0.3139,0.6861	-1087.02
0.2884,0.7116	-1084.78
0.3144,0.6856	-1083.12
0.3345,0.6655	-1089.81
0.3126,0.6874	-1086.24
0.3244,0.6756	-1087.00
0.3719,0.6281	-1092.67
0.2829,0.7171	-1082.10
0.3094,0.6906	-1083.85
0.3177,0.6823	-1082.42
0.3087,0.6913	-1082.23
0.2800,0.7200	-1081.18
0.3372,0.6628	-1088.44
0.2607,0.7393	-1084.60
0.3071,0.6929	-1087.09
0.3081,0.6919	-1083.03
0.3159,0.6841	-1090.10
0.2807,0.7193	-1086.82
0.3293,0.6707	-1084.17
0.3184,0.6816	-1081.67
0.3094,0.6906	-1087.06
0.3092,0.6908	-1084.65
0.2894,0.7106	-1078.48
0.2762,0.7238	-1086.98
0.3445,0.6555	-1087.20
0.2848,0.7152	-1087.61
0.3477,0.6523	-1091.67
0.3306,0.6694	-1088.44
0.3348,0.6652	-1087.06
0.2768,0.7232	-1091.76
0.3289,0.6711	-1089.16
0.2834,0.7166	-1076.53
0.3463,0.6537	-1080.24
0.3149,0.6851	-1087.79
0.3358,0.6642	-1091.85
0.3013,0.6987	-1084.65
0.3174,0.6826	-1087.77
0.2726,0.7274	-1083.21
0.3368,0.6632	-1080.31
0.3097,0.6903	-1083.05
0.3247,0.6753	-1086.27
0.3128,0.6872	-1079.16
0.3487,0.6513	-1082.28
0.2801,0.7199	-1076.46
0.2996,0.7004	-1082.96
0.2547,0.7453	-1078.43
0.3354,0.6646	-1084.34
0.2948,0.7052	-1084.70
0.2916,0.7084	-1079.41
0.2778,0.7222	-1081.19
0.3040,0.6960	-1082.99
0.2530,0.7470	-1081.71
0.3276,0.6724	-1083.41
0.3059,0.6941	-1083.01
0.3138,0.6862	-1090.93
0.3260,0.6740	-1084.82
0.2754,0.7246	-1079.28
0.2531,0.7469	-1074.14
0.3329,0.6671	-1085.66
0.2770,0.7230	-1077.36
0.2924,0.7076	-1075.00
0.3421,0.6579	-1085.85
0.2508,0.7492	-1087.27
0.2741,0.7259	-1078.30
0.3632,0.6368	-1084.85
0.2440,0.7560	-1091.14
0.2720,0.7280	-1084.20
0.3354,0.6646	-1089.81
0.2618,0.7382	-1084.56
0.2787,0.7213	-1081.18
0.3845,0.6155	-1087.52
0.3036,0.6964	-1080.50
0.2660,0.7340	-1081.35
0.2926,0.7074	-1080.31
0.2519,0.7481	-1078.49
0.2627,0.7373	-1081.43
0.3565,0.6435	-1088.65
0.2990,0.7010	-1090.63
0.2851,0.7149	-1078.41
0.2850,0.7150	-1084.84
0.2542,0.7458	-1077.37
0.2576,0.7424	-1079.45
0.2829,0.7171	-1078.38
0.2991,0.7009	-1073.59
0.2880,0.7120	-1081.17
0.2999,0.7001	-1077.03
0.3192,0.6808	-1083.97
0.2928,0.7072	-1077.66
0.2590,0.7410	-1079.42
0.3078,0.6922	-1081.41
0.2750,0.7250	-1078.31
0.3166,0.6834	-1086.24
0.3299,0.6701	-1084.19
0.2934,0.7066	-1079.44
0.3044,0.6956	-1084.65
0.2846,0.7154	-1084.85
0.2617,0.7383	-1085.60
0.3145,0.6855	-1090.91
0.3012,0.6988	-1093.07
0.3105,0.6895	-1087.85
0.3183,0.6817	-1091.57
0.2634,0.7366	-1081.41
0.2844,0.7156	-1079.32
0.3312,0.6688	-1084.92
0.2730,0.7270	-1082.22
0.3873,0.6127	-1090.88
0.2954,0.7046	-1083.82
0.2605,0.7395	-1078.35
0.2689,0.7311	-1082.30
0.3349,0.6651	-1087.07
0.2811,0.7189	-1084.93
0.3817,0.6183	-1089.30
0.3262,0.6738	-1089.18
0.2342,0.7658	-1081.44
0.2840,0.7160	-1080.24
0.2813,0.7187	-1087.74
0.2712,0.7288	-1082.25
0.3326,0.6674	-1084.26
0.3320,0.6680	-1085.64
0.2057,0.7943	-1079.63
0.2620,0.7380	-1083.51
0.3195,0.6805	-1087.75
0.2741,0.7259	-1087.07
0.4026,0.5974	-1090.94
0.3498,0.6502	-1084.21
0.2406,0.7594	-1075.36
0.2862,0.7138	-1085.73
0.3149,0.6851	-1087.79
0.2513,0.7487	-1083.96
0.3886,0.6114	-1090.46
0.3118,0.6882	-1078.33
0.2198,0.7802	-1086.21
0.2884,0.7116	-1090.20
0.3270,0.6730	-1084.84
0.2616,0.7384	-1084.56
0.3874,0.6126	-1090.42
0.3038,0.6962	-1086.30
0.2069,0.7931	-1079.54
0.3075,0.6925	-1084.65
0.2764,0.7236	-1078.31
0.2428,0.7572	-1086.70
0.4058,0.5942	-1091.83
0.2830,0.7170	-1080.24
0.2186,0.7814	-1077.40
0.3184,0.6816	-1085.48
0.2962,0.7038	-1081.22
0.2374,0.7626	-1076.60
0.4001,0.5999	-1086.39
0.3141,0.6859	-1081.55
0.2459,0.7541	-1082.00
0.3444,0.6556	-1086.56
0.2869,0.7131	-1079.34
0.2120,0.7880	-1069.94
0.3711,0.6289	-1088.98
0.2737,0.7263	-1090.02
0.2782,0.7218	-1080.23
0.4053,0.5947	-1094.88
0.2856,0.7144	-1079.33
0.2455,0.7545	-1086.51
0.3420,0.6580	-1089.78
0.3296,0.6704	-1088.44
0.2666,0.7334	-1075.27
0.3877,0.6123	-1089.52
0.3135,0.6865	-1083.10
0.2558,0.7442	-1076.28
0.3648,0.6352	-1086.05
0.2863,0.7137	-1078.42
0.3115,0.6885	-1082.28
0.3469,0.6531	-1091.04
0.3204,0.6796	-1088.50
0.2312,0.7688	-1082.82
0.3039,0.6961	-1082.99
0.2911,0.7089	-1085.63
0.3408,0.6592	-1087.80
0.3208,0.6792	-1085.50
0.3336,0.6664	-1091.20
0.2518,0.7482	-1078.49
0.2565,0.7435	-1081.60
0.3212,0.6788	-1084.00
0.3890,0.6110	-1093.63
0.2901,0.7099	-1082.97
0.2752,0.7248	-1084.12
0.2312,0.7688	-1075.60
0.2525,0.7475	-1084.99
0.3105,0.6895	-1091.04
0.3903,0.6097	-1090.07
0.2639,0.7361	-1072.16
0.2892,0.7108	-1085.67
0.2237,0.7763	-1069.67
0.2929,0.7071	-1083.84
0.2965,0.7035	-1078.63
0.3277,0.6723	-1081.98
0.2746,0.7254	-1084.13
0.3290,0.6710	-1088.44
0.2734,0.7266	-1084.16
0.2821,0.7179	-1084.90
0.3252,0.6748	-1081.16
0.3292,0.6708	-1085.59
0.3193,0.6807	-1087.75
0.2873,0.7127	-1080.26
0.2545,0.7455	-1083.81
0.2917,0.7083	-1089.17
0.3445,0.6555	-1087.85
0.3343,0.6657	-1085.68
0.3562,0.6438	-1088.05
0.2782,0.7218	-1076.42
0.2837,0.7163	-1080.24
0.3403,0.6597	-1096.40
0.4028,0.5972	-1090.16
0.3174,0.6826	-1087.00
0.3637,0.6363	-1088.79
0.3356,0.6644	-1087.76
0.2701,0.7299	-1082.27
0.3293,0.6707	-1084.17
0.4060,0.5940	-1089.55
0.3234,0.6766	-1083.31
0.3605,0.6395	-1082.99
0.3251,0.6749	-1079.69
0.2997,0.7003	-1084.66
0.2873,0.7127	-1079.35
0.3784,0.6216	-1093.66
0.2949,0.7051	-1088.18
0.3318,0.6682	-1089.84
0.3344,0.6656	-1087.06
0.2981,0.7019	-1084.67
0.3296,0.6704	-1084.18
0.3146,0.6854	-1080.79
0.3107,0.6893	-1082.27
0.3464,0.6536	-1089.78
0.3280,0.6720	-1083.43
0.3196,0.6804	-1085.49
0.3500,0.6500	-1087.31
0.3300,0.6700	-1091.98
0.3085,0.6915	-1083.84
0.3238,0.6762	-1087.00
0.3092,0.6908	-1084.65
0.2762,0.7238	-1093.73
0.3389,0.6611	-1087.78
0.3697,0.6303	-1086.80
0.3060,0.6940	-1080.55
0.2544,0.7456	-1088.12
0.3047,0.6953	-1084.65
0.2940,0.7060	-1086.46
0.3431,0.6569	-1085.88
0.4053,0.5947	-1091.43
0.2559,0.7441	-1084.82
0.2532,0.7468	-1090.36
0.3432,0.6568	-1083.28
0.2892,0.7108	-1080.27
0.4030,0.5970	-1090.17
0.3771,0.6229	-1093.67
0.2740,0.7260	-1086.10
0.2559,0.7441	-1076.28
0.3152,0.6848	-1078.48
0.2865,0.7135	-1082.99
