#isoforms=['ENSG00000101294.SE.1.A.up_ENSG00000101294.SE.1.A.SE1_ENSG00000101294.SE.1.A.dn','ENSG00000101294.SE.1.B.up_ENSG00000101294.SE.1.B.dn']	exon_lens=('ENSG00000101294.SE.1.A.up',99),('ENSG00000101294.SE.1.A.SE1',376),('ENSG00000101294.SE.1.A.dn',89),('ENSG00000101294.SE.1.B.up',99),('ENSG00000101294.SE.1.B.dn',89)	iters=5000	burn_in=500	lag=10	percent_accept=84.00	proposal_type=drift	counts=(0,0):360,(1,0):153,(1,1):253	assigned_counts=0:228,1:178	chrom=chr20	strand=+	mRNA_starts=31527484,31527484	mRNA_ends=31545035,31545035
sampled_psi	log_score
0.2126,0.7874	-2587.63
0.2724,0.7276	-2610.42
0.2880,0.7120	-2602.11
0.2960,0.7040	-2609.53
0.2542,0.7458	-2590.97
0.2631,0.7369	-2597.42
0.2460,0.7540	-2589.78
0.2361,0.7639	-2568.79
0.3313,0.6687	-2612.61
0.2581,0.7419	-2593.17
0.2623,0.7377	-2599.48
0.2222,0.7778	-2593.16
0.2595,0.7405	-2596.35
0.2206,0.7794	-2581.94
0.3112,0.6888	-2611.05
0.2485,0.7515	-2579.84
0.2215,0.7785	-2584.42
0.2422,0.7578	-2589.80
0.2614,0.7386	-2600.52
0.2216,0.7784	-2563.06
0.3041,0.6959	-2609.85
0.2497,0.7503	-2603.01
0.2060,0.7940	-2577.55
0.2618,0.7382	-2595.34
0.2620,0.7380	-2609.84
0.2051,0.7949	-2574.91
0.3001,0.6999	-2608.83
0.2751,0.7249	-2603.56
0.2033,0.7967	-2592.79
0.2479,0.7521	-2587.57
0.2416,0.7584	-2590.95
0.2282,0.7718	-2582.94
0.2903,0.7097	-2603.13
0.3109,0.6891	-2612.62
0.2144,0.7856	-2575.78
0.2567,0.7433	-2587.83
0.2289,0.7711	-2584.14
0.2631,0.7369	-2573.74
0.2613,0.7387	-2597.41
0.3132,0.6868	-2614.31
0.1992,0.8008	-2568.41
0.2653,0.7347	-2594.40
0.2672,0.7328	-2591.44
0.2358,0.7642	-2593.46
0.2398,0.7602	-2599.06
0.3038,0.6962	-2603.20
0.1649,0.8351	-2563.48
0.2633,0.7367	-2590.23
0.2521,0.7479	-2587.67
0.2628,0.7372	-2581.95
0.2430,0.7570	-2590.93
0.2957,0.7043	-2603.44
0.1740,0.8260	-2552.65
0.2363,0.7637	-2578.18
0.2630,0.7370	-2587.11
0.2675,0.7325	-2591.46
0.2539,0.7461	-2588.81
0.3037,0.6963	-2601.53
0.1641,0.8359	-2566.90
0.2301,0.7699	-2580.49
0.2395,0.7605	-2586.37
0.2518,0.7482	-2598.55
0.2639,0.7361	-2600.51
0.2551,0.7449	-2597.41
0.1994,0.8006	-2587.86
0.2427,0.7573	-2592.07
0.2687,0.7313	-2588.52
0.2639,0.7361	-2607.69
0.2521,0.7479	-2602.89
0.2609,0.7391	-2601.57
0.2142,0.7858	-2584.89
0.2147,0.7853	-2577.06
0.2299,0.7701	-2575.66
0.2342,0.7658	-2607.75
0.2447,0.7553	-2603.31
0.2597,0.7403	-2598.45
0.1860,0.8140	-2560.71
0.1988,0.8012	-2569.83
0.2054,0.7946	-2577.60
0.2150,0.7850	-2574.46
0.2064,0.7936	-2578.87
0.2593,0.7407	-2578.51
0.2309,0.7691	-2584.10
0.2009,0.7991	-2571.08
0.2385,0.7615	-2575.93
0.2035,0.7965	-2579.11
0.2113,0.7887	-2566.68
0.2515,0.7485	-2595.29
0.2278,0.7722	-2570.74
0.2174,0.7826	-2564.16
0.2370,0.7630	-2587.56
0.2442,0.7558	-2590.92
0.2350,0.7650	-2575.79
0.2385,0.7615	-2585.22
0.2458,0.7542	-2589.78
0.2038,0.7962	-2584.54
0.2359,0.7641	-2586.40
0.2364,0.7636	-2582.88
0.2235,0.7765	-2595.54
0.2319,0.7681	-2580.49
0.2177,0.7823	-2579.52
0.2026,0.7974	-2575.09
0.2960,0.7040	-2606.06
0.2514,0.7486	-2602.93
0.2294,0.7706	-2590.19
0.2463,0.7537	-2588.67
0.2180,0.7820	-2582.06
0.2404,0.7596	-2587.52
0.2729,0.7271	-2603.54
0.2534,0.7466	-2590.95
0.2651,0.7349	-2586.24
0.2402,0.7598	-2576.01
0.2349,0.7651	-2595.86
0.2359,0.7641	-2593.45
0.2819,0.7181	-2615.86
0.2532,0.7468	-2595.28
0.2489,0.7511	-2588.70
0.2003,0.7997	-2572.50
0.2499,0.7501	-2604.10
0.2570,0.7430	-2588.91
0.2551,0.7449	-2607.06
0.2472,0.7528	-2583.11
0.2523,0.7477	-2586.59
0.2166,0.7834	-2597.57
0.2537,0.7463	-2590.96
0.2859,0.7141	-2616.65
0.2861,0.7139	-2609.33
0.2444,0.7556	-2596.56
0.2355,0.7645	-2574.63
0.2144,0.7856	-2584.87
0.2487,0.7513	-2596.43
0.3202,0.6798	-2602.62
0.2932,0.7068	-2612.97
0.2385,0.7615	-2578.25
0.2336,0.7664	-2601.88
0.2463,0.7537	-2594.26
0.2395,0.7605	-2594.46
0.2846,0.7154	-2599.18
0.2853,0.7147	-2589.12
0.2640,0.7360	-2600.51
0.2314,0.7686	-2592.49
0.2642,0.7358	-2604.61
0.2303,0.7697	-2582.91
0.3100,0.6900	-2608.58
0.2465,0.7535	-2592.02
0.2683,0.7317	-2589.50
0.2125,0.7875	-2565.37
0.2866,0.7134	-2608.42
0.2695,0.7305	-2596.56
0.2783,0.7217	-2592.18
0.2382,0.7618	-2600.33
0.2572,0.7428	-2597.40
0.2380,0.7620	-2584.05
0.3043,0.6957	-2612.34
0.2530,0.7470	-2594.19
0.2906,0.7094	-2608.50
0.2976,0.7024	-2605.29
0.2762,0.7238	-2588.16
0.2268,0.7732	-2594.01
0.3074,0.6926	-2613.27
0.2344,0.7656	-2589.98
0.2778,0.7222	-2600.74
0.2601,0.7399	-2591.13
0.2809,0.7191	-2599.92
0.2435,0.7565	-2581.86
0.3156,0.6844	-2612.87
0.2477,0.7523	-2588.68
0.2360,0.7640	-2572.30
0.2395,0.7605	-2582.91
0.2603,0.7397	-2593.22
0.2481,0.7519	-2592.01
0.2864,0.7136	-2605.68
0.2551,0.7449	-2596.34
0.2541,0.7459	-2589.89
0.2941,0.7059	-2596.34
0.2645,0.7355	-2602.56
0.2508,0.7492	-2582.16
0.2878,0.7122	-2608.44
0.2996,0.7004	-2598.62
0.2578,0.7422	-2589.99
0.2739,0.7261	-2599.65
0.2520,0.7480	-2577.88
0.2236,0.7764	-2589.30
0.2386,0.7614	-2579.41
0.2752,0.7248	-2600.66
0.2502,0.7498	-2599.69
0.2390,0.7610	-2596.80
0.2527,0.7473	-2594.19
0.2317,0.7683	-2587.68
0.2570,0.7430	-2602.71
0.2406,0.7594	-2585.22
0.2654,0.7346	-2594.40
0.2245,0.7755	-2586.76
0.2526,0.7474	-2594.19
0.2531,0.7469	-2594.19
0.2632,0.7368	-2592.28
0.2581,0.7419	-2601.62
0.2643,0.7357	-2600.51
0.2769,0.7231	-2593.99
0.2567,0.7433	-2586.77
0.2388,0.7612	-2585.22
0.2654,0.7346	-2596.44
0.2719,0.7281	-2610.43
0.3027,0.6973	-2614.79
0.2909,0.7091	-2597.81
0.2166,0.7834	-2583.43
0.2376,0.7624	-2584.05
0.2669,0.7331	-2590.42
0.2335,0.7665	-2584.06
0.2560,0.7440	-2599.54
0.2587,0.7413	-2593.19
0.2389,0.7611	-2586.38
0.2346,0.7654	-2579.33
0.2903,0.7097	-2594.19
0.2459,0.7541	-2579.70
0.2322,0.7678	-2582.88
0.2625,0.7375	-2591.22
0.2311,0.7689	-2582.89
0.2092,0.7908	-2572.02
0.2608,0.7392	-2596.36
0.2513,0.7487	-2595.29
0.2412,0.7588	-2594.40
0.2384,0.7616	-2584.05
0.2714,0.7286	-2590.70
0.2137,0.7863	-2587.52
0.2547,0.7453	-2590.98
0.2057,0.7943	-2578.93
0.2338,0.7662	-2581.69
0.2208,0.7792	-2579.41
0.2410,0.7590	-2585.23
0.2335,0.7665	-2585.25
0.2337,0.7663	-2587.63
0.2196,0.7804	-2576.91
0.2566,0.7434	-2591.02
0.2155,0.7845	-2593.83
0.2189,0.7811	-2598.56
0.2355,0.7645	-2580.52
0.2300,0.7700	-2594.99
0.2792,0.7208	-2588.46
0.2545,0.7455	-2587.75
0.2450,0.7550	-2594.29
0.2603,0.7397	-2592.18
0.2344,0.7656	-2581.69
0.2405,0.7595	-2585.22
0.2891,0.7109	-2603.97
0.2672,0.7328	-2614.64
0.2483,0.7517	-2601.98
0.2266,0.7734	-2579.30
0.2189,0.7811	-2576.93
0.2638,0.7362	-2597.43
0.2655,0.7345	-2596.44
0.2555,0.7445	-2593.13
0.2354,0.7646	-2584.05
0.2212,0.7788	-2584.44
0.2608,0.7392	-2593.23
0.2560,0.7440	-2592.07
0.2408,0.7592	-2593.26
0.2791,0.7209	-2589.39
0.2625,0.7375	-2602.58
0.2538,0.7462	-2587.73
0.2466,0.7534	-2607.66
0.2809,0.7191	-2597.10
0.2261,0.7739	-2571.92
0.2411,0.7589	-2577.20
0.2594,0.7406	-2601.59
0.2377,0.7623	-2578.23
0.2410,0.7590	-2592.11
0.2491,0.7509	-2584.29
0.2251,0.7749	-2591.68
0.2337,0.7663	-2594.75
0.2715,0.7285	-2578.86
0.2521,0.7479	-2603.98
0.2793,0.7207	-2603.64
0.2118,0.7882	-2592.96
0.2788,0.7212	-2603.62
0.2342,0.7658	-2594.72
0.2531,0.7469	-2603.94
0.2644,0.7356	-2586.18
0.2584,0.7416	-2584.75
0.2515,0.7485	-2593.11
0.2541,0.7459	-2588.81
0.2331,0.7669	-2590.02
0.2238,0.7762	-2590.53
0.2931,0.7069	-2602.40
0.2692,0.7308	-2595.55
0.2923,0.7077	-2595.28
0.2580,0.7420	-2586.83
0.2470,0.7530	-2590.90
0.2231,0.7769	-2583.10
0.2489,0.7511	-2603.06
0.2677,0.7323	-2603.54
0.3307,0.6693	-2605.50
0.2529,0.7471	-2589.86
0.2775,0.7225	-2605.51
0.2200,0.7800	-2592.09
0.2322,0.7678	-2593.65
0.2676,0.7324	-2596.50
0.3145,0.6855	-2605.02
0.2180,0.7820	-2575.67
0.2418,0.7582	-2593.23
0.2501,0.7499	-2579.93
0.2409,0.7591	-2609.33
0.2748,0.7252	-2598.71
0.3010,0.6990	-2591.18
0.2090,0.7910	-2589.33
0.2128,0.7872	-2588.92
0.2646,0.7354	-2582.11
0.2328,0.7672	-2585.26
0.2726,0.7274	-2592.74
0.3131,0.6869	-2601.73
0.2071,0.7929	-2574.79
0.2240,0.7760	-2585.55
0.2394,0.7606	-2584.06
0.2039,0.7961	-2569.55
0.2516,0.7484	-2595.29
0.2791,0.7209	-2598.89
0.2516,0.7484	-2584.38
0.2434,0.7566	-2580.72
0.2279,0.7721	-2569.53
0.2110,0.7890	-2562.73
0.2407,0.7593	-2582.93
0.2421,0.7579	-2589.80
0.2175,0.7825	-2578.25
0.2345,0.7655	-2592.34
0.2466,0.7534	-2596.49
0.1968,0.8032	-2592.48
0.2384,0.7616	-2578.25
0.2382,0.7618	-2592.19
0.2304,0.7696	-2574.46
0.2393,0.7607	-2596.79
0.2159,0.7841	-2580.89
0.2065,0.7935	-2582.90
0.2368,0.7632	-2578.20
0.2501,0.7499	-2615.07
0.2224,0.7776	-2583.12
0.2179,0.7821	-2589.73
0.2101,0.7899	-2586.56
0.2343,0.7657	-2600.64
0.2754,0.7246	-2608.40
0.2574,0.7426	-2584.69
0.2264,0.7736	-2571.93
0.2466,0.7534	-2586.43
0.2410,0.7590	-2593.26
0.2305,0.7695	-2582.90
0.2501,0.7499	-2606.29
0.2615,0.7385	-2607.79
0.2502,0.7498	-2589.81
0.2854,0.7146	-2599.23
0.2488,0.7512	-2579.85
0.2697,0.7303	-2605.53
0.2674,0.7326	-2579.36
0.2739,0.7261	-2586.98
0.2409,0.7591	-2597.85
0.2751,0.7249	-2584.19
0.2464,0.7536	-2598.73
0.2794,0.7206	-2594.16
0.2369,0.7631	-2584.05
0.2776,0.7224	-2599.78
0.2210,0.7790	-2588.22
0.2696,0.7304	-2584.60
0.2528,0.7472	-2589.86
0.2709,0.7291	-2609.47
0.2245,0.7755	-2574.37
0.2770,0.7230	-2596.88
0.2496,0.7504	-2583.20
0.2835,0.7165	-2607.46
0.2308,0.7692	-2591.33
0.2783,0.7217	-2604.57
0.2515,0.7485	-2577.84
0.2304,0.7696	-2567.22
0.2254,0.7746	-2590.43
0.2526,0.7474	-2598.53
0.2547,0.7453	-2589.90
0.2833,0.7167	-2600.96
0.2533,0.7467	-2607.17
0.2359,0.7641	-2582.88
0.2265,0.7735	-2582.98
0.2368,0.7632	-2589.90
0.3003,0.6997	-2609.68
0.2624,0.7376	-2594.31
0.2560,0.7440	-2601.68
0.2209,0.7791	-2573.11
0.2593,0.7407	-2590.05
0.2321,0.7679	-2592.46
0.2689,0.7311	-2588.53
0.2483,0.7517	-2580.93
0.2650,0.7350	-2593.37
0.2252,0.7748	-2579.32
0.2596,0.7404	-2599.49
0.2446,0.7554	-2579.64
0.2355,0.7645	-2592.30
0.2852,0.7148	-2590.03
0.2271,0.7729	-2582.97
0.2590,0.7410	-2578.48
0.2880,0.7120	-2602.11
0.2406,0.7594	-2589.82
0.2352,0.7648	-2581.69
0.2813,0.7187	-2598.06
0.2460,0.7540	-2599.87
0.2478,0.7522	-2596.45
0.2561,0.7439	-2579.28
0.2530,0.7470	-2593.11
0.2481,0.7519	-2580.92
0.2797,0.7203	-2602.70
0.2459,0.7541	-2594.27
0.2614,0.7386	-2587.02
0.2169,0.7831	-2596.24
0.2937,0.7063	-2591.91
0.2740,0.7260	-2593.81
0.2395,0.7605	-2575.98
0.2333,0.7667	-2586.45
0.2262,0.7738	-2591.60
0.2141,0.7859	-2571.89
0.2726,0.7274	-2596.67
0.2545,0.7455	-2606.02
0.2214,0.7786	-2593.23
0.2738,0.7262	-2592.82
0.2240,0.7760	-2578.09
0.2525,0.7475	-2584.43
0.2353,0.7647	-2600.55
0.2503,0.7497	-2588.72
0.2430,0.7570	-2604.57
0.2901,0.7099	-2606.70
0.2354,0.7646	-2582.87
0.2387,0.7613	-2593.34
0.2667,0.7333	-2606.59
0.2282,0.7718	-2578.07
0.2297,0.7703	-2587.76
0.2915,0.7085	-2606.75
0.2234,0.7766	-2583.09
0.2384,0.7616	-2586.38
0.2920,0.7080	-2598.79
0.2502,0.7498	-2581.04
0.2349,0.7651	-2576.97
0.2774,0.7226	-2594.98
0.2367,0.7633	-2571.17
0.2352,0.7648	-2585.23
0.2472,0.7528	-2595.36
0.2302,0.7698	-2592.56
0.2584,0.7416	-2600.56
0.3181,0.6819	-2620.65
0.2348,0.7652	-2601.77
0.2504,0.7496	-2601.88
0.2449,0.7551	-2589.78
0.2080,0.7920	-2592.13
0.2676,0.7324	-2601.53
0.2867,0.7133	-2611.16
0.2629,0.7371	-2588.14
0.2598,0.7402	-2582.74
0.1936,0.8064	-2567.38
0.2032,0.7968	-2575.04
0.2460,0.7540	-2592.02
0.2431,0.7569	-2590.93
0.2525,0.7475	-2599.62
0.2452,0.7548	-2595.41
0.2256,0.7744	-2566.98
0.2558,0.7442	-2598.48
0.2542,0.7458	-2589.89
0.2592,0.7408	-2597.40
0.2716,0.7284	-2605.51
0.2605,0.7395	-2596.36
0.2002,0.7998	-2573.90
0.2087,0.7913	-2568.04
0.2176,0.7824	-2580.80
0.2559,0.7441	-2593.14
0.2747,0.7253	-2595.79
0.2598,0.7402	-2590.07
0.2167,0.7833	-2596.26
0.2278,0.7722	-2582.95
0.2264,0.7736	-2579.30
0.1962,0.8038	-2568.60
0.2549,0.7451	-2596.34
0.2456,0.7544	-2587.54
0.2278,0.7722	-2590.28
0.2260,0.7740	-2592.84
0.2374,0.7626	-2584.05
0.1848,0.8152	-2586.04
0.2219,0.7781	-2569.34
0.2731,0.7269	-2588.86
0.2338,0.7662	-2563.88
0.2139,0.7861	-2575.80
0.2302,0.7698	-2585.32
0.2059,0.7941	-2580.26
0.2400,0.7600	-2581.76
0.2587,0.7413	-2601.61
0.2359,0.7641	-2579.35
0.2115,0.7885	-2589.05
0.2523,0.7477	-2594.19
0.2564,0.7436	-2595.27
0.2674,0.7326	-2594.47
0.2474,0.7526	-2590.90
0.2427,0.7573	-2582.97
0.2418,0.7582	-2577.23
0.2463,0.7537	-2594.26
0.2199,0.7801	-2575.64
0.2650,0.7350	-2592.35
0.2608,0.7392	-2595.32
0.2481,0.7519	-2597.55
0.2340,0.7660	-2579.32
0.2510,0.7490	-2588.73
0.2164,0.7836	-2589.87
0.2313,0.7687	-2588.90
0.2568,0.7432	-2592.09
0.2509,0.7491	-2590.92
0.2345,0.7655	-2584.06
0.2366,0.7634	-2580.54
0.2416,0.7584	-2586.38
0.2378,0.7622	-2596.87
0.2623,0.7377	-2588.11
0.2520,0.7480	-2581.14
0.2710,0.7290	-2600.57
0.2561,0.7439	-2578.21
0.2540,0.7460	-2590.96
0.2460,0.7540	-2581.94
0.2596,0.7404	-2592.16
0.2451,0.7549	-2592.03
0.2628,0.7372	-2592.26
0.2814,0.7186	-2603.69
0.2430,0.7570	-2581.84
0.2541,0.7459	-2582.35
0.2612,0.7388	-2584.93
0.2167,0.7833	-2589.84
0.2425,0.7575	-2590.94
0.3106,0.6894	-2615.00
0.2669,0.7331	-2597.49
0.2648,0.7352	-2598.47
0.2628,0.7372	-2586.07
0.2360,0.7640	-2594.62
0.2768,0.7232	-2607.43
0.2812,0.7188	-2609.31
0.2637,0.7363	-2607.70
0.2863,0.7137	-2606.59
0.2212,0.7788	-2579.40
0.2216,0.7784	-2581.90
0.3122,0.6878	-2603.99
0.2678,0.7322	-2596.50
0.2409,0.7591	-2588.67
0.3003,0.6997	-2608.84
0.2602,0.7398	-2604.71
0.2289,0.7711	-2584.14
0.3232,0.6768	-2602.27
0.2688,0.7312	-2597.53
0.2123,0.7877	-2567.99
0.2882,0.7118	-2606.64
0.2511,0.7489	-2609.50
0.2450,0.7550	-2587.53
0.3044,0.6956	-2611.52
0.2607,0.7393	-2596.36
0.2201,0.7799	-2585.76
0.2819,0.7181	-2599.96
0.2665,0.7335	-2585.33
0.2467,0.7533	-2577.50
0.2843,0.7157	-2598.24
0.2708,0.7292	-2604.53
0.2549,0.7451	-2595.27
0.2778,0.7222	-2602.65
0.2633,0.7367	-2593.31
0.2402,0.7598	-2586.37
0.2629,0.7371	-2586.08
0.2543,0.7457	-2594.20
0.2456,0.7544	-2590.91
0.2953,0.7047	-2593.85
0.2345,0.7655	-2591.16
0.2199,0.7801	-2580.71
0.2482,0.7518	-2598.66
0.2585,0.7415	-2585.80
0.2391,0.7609	-2599.11
0.2549,0.7451	-2590.98
0.2816,0.7184	-2590.59
0.2550,0.7450	-2586.69
0.2429,0.7571	-2588.66
0.2554,0.7446	-2589.92
0.2499,0.7501	-2590.91
0.2511,0.7489	-2598.57
0.2649,0.7351	-2586.22
0.2606,0.7394	-2606.79
0.2301,0.7699	-2575.66
0.2464,0.7536	-2596.49
0.2383,0.7617	-2585.22
0.2668,0.7332	-2600.52
0.2961,0.7039	-2617.33
0.2543,0.7457	-2585.59
0.2465,0.7535	-2597.61
0.2615,0.7385	-2602.60
0.2523,0.7477	-2599.63
0.2566,0.7434	-2585.70
0.2779,0.7221	-2607.43
0.2759,0.7241	-2595.85
0.2778,0.7222	-2587.36
0.2654,0.7346	-2598.48
0.2319,0.7681	-2580.49
0.2515,0.7485	-2593.11
0.2690,0.7310	-2593.54
0.2822,0.7178	-2593.44
0.2499,0.7501	-2608.49
0.2333,0.7667	-2573.36
0.2667,0.7333	-2597.48
0.2370,0.7630	-2584.05
0.2672,0.7328	-2596.49
0.2477,0.7523	-2593.12
0.2634,0.7366	-2599.48
0.2371,0.7629	-2577.04
0.2655,0.7345	-2596.44
0.2727,0.7273	-2607.47
0.2784,0.7216	-2596.95
0.2290,0.7710	-2588.99
0.2640,0.7360	-2592.31
0.2574,0.7426	-2584.68
0.2538,0.7462	-2588.80
0.2752,0.7248	-2590.97
0.2541,0.7459	-2597.43
0.2465,0.7535	-2595.37
0.2568,0.7432	-2587.84
0.2462,0.7538	-2584.19
0.2535,0.7465	-2587.72
0.2547,0.7453	-2599.57
0.2483,0.7517	-2584.26
0.2047,0.7953	-2572.23
0.2494,0.7506	-2579.89
0.2475,0.7525	-2584.23
0.2971,0.7029	-2590.62
0.2639,0.7361	-2590.25
0.2601,0.7399	-2613.08
0.2247,0.7753	-2583.04
0.2398,0.7602	-2580.60
0.2610,0.7390	-2600.53
0.2862,0.7138	-2601.10
0.2814,0.7186	-2599.94
0.2697,0.7303	-2594.57
0.2341,0.7659	-2584.06
0.2783,0.7217	-2595.99
0.2343,0.7657	-2582.87
0.2693,0.7307	-2588.56
0.3042,0.6958	-2609.86
0.2669,0.7331	-2594.46
0.2553,0.7447	-2593.13
0.2990,0.7010	-2613.89
0.2238,0.7762	-2583.07
0.2626,0.7374	-2600.51
0.2644,0.7356	-2587.21
0.2631,0.7369	-2594.33
0.2586,0.7414	-2601.61
0.2738,0.7262	-2604.53
0.2185,0.7815	-2580.76
0.2761,0.7239	-2600.69
0.2153,0.7847	-2582.21
0.2806,0.7194	-2586.72
0.2707,0.7293	-2600.56
0.2713,0.7287	-2593.66
0.2319,0.7681	-2580.49
0.3183,0.6817	-2609.98
0.2081,0.7919	-2570.73
0.2518,0.7482	-2585.48
0.2838,0.7162	-2590.80
0.2734,0.7266	-2601.59
0.2516,0.7484	-2601.83
0.2948,0.7052	-2616.47
0.1985,0.8015	-2579.62
0.2603,0.7397	-2588.00
0.2787,0.7213	-2603.62
0.3034,0.6966	-2618.13
0.1907,0.8093	-2593.64
0.2326,0.7674	-2582.88
0.2133,0.7867	-2587.57
0.2327,0.7673	-2581.69
0.2434,0.7566	-2589.79
0.2265,0.7735	-2579.30
0.1734,0.8266	-2577.70
0.2193,0.7807	-2588.35
0.2739,0.7261	-2595.75
0.2367,0.7633	-2579.37
0.2258,0.7742	-2574.38
0.2329,0.7671	-2585.26
0.2014,0.7986	-2575.19
0.2524,0.7476	-2582.25
0.2837,0.7163	-2615.80
0.2099,0.7901	-2572.00
0.2198,0.7802	-2576.91
0.2332,0.7668	-2606.68
0.2442,0.7558	-2584.14
0.2553,0.7447	-2596.34
0.2490,0.7510	-2595.32
0.2422,0.7578	-2578.39
0.1921,0.8079	-2586.18
0.2274,0.7726	-2573.18
0.2276,0.7724	-2586.62
0.2551,0.7449	-2586.70
0.2123,0.7877	-2578.48
0.2477,0.7523	-2582.01
0.2196,0.7804	-2570.57
0.2140,0.7860	-2590.11
0.2514,0.7486	-2589.83
0.2590,0.7410	-2602.65
0.2414,0.7586	-2592.10
0.2271,0.7729	-2571.94
0.2070,0.7930	-2578.83
0.2428,0.7572	-2585.25
0.2804,0.7196	-2593.29
0.2339,0.7661	-2574.57
0.2378,0.7622	-2591.04
0.2452,0.7548	-2595.41
0.2232,0.7768	-2583.09
0.2522,0.7478	-2605.07
0.2667,0.7333	-2600.52
0.2259,0.7741	-2583.00
0.2572,0.7428	-2594.22
0.2078,0.7922	-2581.45
0.2332,0.7668	-2586.45
0.2635,0.7365	-2587.15
0.2592,0.7408	-2593.20
0.2377,0.7623	-2584.05
0.2302,0.7698	-2590.15
0.2679,0.7321	-2593.49
0.2477,0.7523	-2579.79
0.2647,0.7353	-2589.27
0.2591,0.7409	-2604.75
0.2199,0.7801	-2588.31
0.2442,0.7558	-2596.57
0.2825,0.7175	-2588.81
0.2423,0.7577	-2593.22
0.2468,0.7532	-2578.63
0.2400,0.7600	-2582.92
0.2459,0.7541	-2580.82
0.2589,0.7411	-2591.09
0.3052,0.6948	-2607.44
0.2433,0.7567	-2576.18
0.3178,0.6822	-2611.48
0.2344,0.7656	-2598.26
0.2600,0.7400	-2594.26
0.2796,0.7204	-2596.07
0.2797,0.7203	-2584.73
0.2455,0.7545	-2587.54
0.3466,0.6534	-2611.75
0.2670,0.7330	-2597.49
0.2186,0.7814	-2583.31
0.2491,0.7509	-2592.01
0.2536,0.7464	-2586.64
0.2272,0.7728	-2586.64
0.3615,0.6385	-2627.10
0.2529,0.7471	-2590.94
0.2391,0.7609	-2587.53
0.2574,0.7426	-2593.16
0.2622,0.7378	-2595.34
0.2710,0.7290	-2608.48
0.3302,0.6698	-2612.51
0.2709,0.7291	-2601.56
0.2515,0.7485	-2590.92
0.2206,0.7794	-2583.20
0.2420,0.7580	-2580.67
0.2649,0.7351	-2600.51
0.3159,0.6841	-2608.25
0.2647,0.7353	-2587.23
0.2456,0.7544	-2578.56
0.2273,0.7727	-2590.31
0.2430,0.7570	-2589.79
0.2814,0.7186	-2608.38
0.2847,0.7153	-2602.87
0.2541,0.7459	-2580.19
0.2372,0.7628	-2595.73
0.2314,0.7686	-2568.49
0.2607,0.7393	-2598.44
0.3230,0.6770	-2625.93
0.2864,0.7136	-2598.38
0.2533,0.7467	-2603.92
0.2286,0.7714	-2582.94
0.2303,0.7697	-2585.32
0.2713,0.7287	-2597.61
0.2841,0.7159	-2599.15
0.2853,0.7147	-2596.47
0.2783,0.7217	-2593.13
0.2754,0.7246	-2615.17
0.2749,0.7251	-2597.74
0.2603,0.7397	-2599.49
0.2667,0.7333	-2597.48
0.2615,0.7385	-2589.10
0.2378,0.7622	-2586.38
0.2684,0.7316	-2602.54
0.2735,0.7265	-2595.73
0.2064,0.7936	-2573.48
0.2197,0.7803	-2581.98
0.2545,0.7455	-2600.65
0.2157,0.7843	-2574.45
0.2972,0.7028	-2602.68
0.2421,0.7579	-2603.50
0.2516,0.7484	-2598.56
0.2046,0.7954	-2589.89
0.2368,0.7632	-2596.92
0.2128,0.7872	-2575.84
0.2621,0.7379	-2598.45
0.2901,0.7099	-2612.07
0.2515,0.7485	-2581.11
0.2081,0.7919	-2576.07
0.2331,0.7669	-2584.07
0.2253,0.7747	-2578.08
0.2376,0.7624	-2591.05
0.2675,0.7325	-2598.51
0.2472,0.7528	-2584.22
0.1965,0.8035	-2572.81
0.2358,0.7642	-2585.23
0.2302,0.7698	-2591.36
0.2341,0.7659	-2595.91
0.3068,0.6932	-2602.66
0.2217,0.7783	-2585.67
0.2045,0.7955	-2568.16
0.2247,0.7753	-2590.47
0.2223,0.7777	-2596.90
0.2452,0.7548	-2596.53
0.2807,0.7193	-2602.73
0.2212,0.7788	-2590.73
0.1887,0.8113	-2572.18
0.2413,0.7587	-2588.67
0.2104,0.7896	-2582.56
0.2127,0.7873	-2565.37
0.2776,0.7224	-2591.17
0.2221,0.7779	-2581.88
0.2272,0.7728	-2592.76
0.2519,0.7481	-2590.93
0.2021,0.7979	-2590.23
0.2193,0.7807	-2588.35
0.2605,0.7395	-2593.23
0.2279,0.7721	-2580.51
0.3006,0.6994	-2598.72
0.2629,0.7371	-2591.24
0.2066,0.7934	-2589.62
0.2292,0.7708	-2565.95
0.2443,0.7557	-2595.43
0.2959,0.7041	-2607.79
0.2729,0.7271	-2605.50
0.2511,0.7489	-2585.46
0.2486,0.7514	-2595.33
0.2789,0.7211	-2604.58
0.2443,0.7557	-2575.11
0.2947,0.7053	-2598.15
0.2162,0.7838	-2583.45
0.2563,0.7437	-2597.40
0.2237,0.7763	-2578.10
0.2631,0.7369	-2591.24
0.2256,0.7744	-2581.78
0.2897,0.7103	-2600.41
0.2387,0.7613	-2600.29
0.2299,0.7701	-2574.45
0.2034,0.7966	-2596.87
0.2863,0.7137	-2602.94
0.2599,0.7401	-2582.75
0.2641,0.7359	-2599.49
