#isoforms=['ENSG00000110080.SE.2.A.up_ENSG00000110080.SE.2.A.SE1_ENSG00000110080.SE.2.A.dn','ENSG00000110080.SE.2.B.up_ENSG00000110080.SE.2.B.dn']	exon_lens=('ENSG00000110080.SE.2.A.up',61),('ENSG00000110080.SE.2.A.SE1',96),('ENSG00000110080.SE.2.A.dn',190),('ENSG00000110080.SE.2.B.up',61),('ENSG00000110080.SE.2.B.dn',190)	iters=5000	burn_in=500	lag=10	percent_accept=95.19	proposal_type=drift	counts=(0,0):135,(1,0):177,(1,1):264	assigned_counts=0:439,1:2	chrom=chr11	strand=+	mRNA_starts=126407574,126407574	mRNA_ends=126408496,126408496
sampled_psi	log_score
0.9661,0.0339	-2541.39
0.9698,0.0302	-2534.01
0.9498,0.0502	-2576.42
0.9340,0.0660	-2576.58
0.8828,0.1172	-2617.53
0.9097,0.0903	-2599.67
0.9754,0.0246	-2533.12
0.9700,0.0300	-2544.40
0.9522,0.0478	-2576.53
0.9377,0.0623	-2579.14
0.8727,0.1273	-2612.13
0.9067,0.0933	-2581.56
0.9761,0.0239	-2533.02
0.9623,0.0377	-2551.63
0.9447,0.0553	-2573.48
0.9477,0.0523	-2570.56
0.8555,0.1445	-2631.58
0.9197,0.0803	-2589.89
0.9800,0.0200	-2544.23
0.9650,0.0350	-2544.85
0.9414,0.0586	-2565.23
0.9525,0.0475	-2567.55
0.8677,0.1323	-2618.19
0.9066,0.0934	-2602.03
0.9829,0.0171	-2568.75
0.9599,0.0401	-2558.16
0.9490,0.0510	-2553.00
0.9425,0.0575	-2573.53
0.8987,0.1013	-2611.02
0.9198,0.0802	-2589.89
0.9770,0.0230	-2532.90
0.9565,0.0435	-2539.76
0.9464,0.0536	-2561.98
0.9416,0.0584	-2581.89
0.8743,0.1257	-2629.46
0.9287,0.0713	-2566.64
0.9785,0.0215	-2532.72
0.9504,0.0496	-2549.87
0.9424,0.0576	-2579.12
0.9436,0.0564	-2584.77
0.8769,0.1231	-2625.57
0.9151,0.0849	-2573.45
0.9782,0.0218	-2532.76
0.9664,0.0336	-2568.22
0.9447,0.0553	-2581.99
0.9385,0.0615	-2551.88
0.8798,0.1202	-2615.62
0.9337,0.0663	-2587.18
0.9816,0.0184	-2536.38
0.9612,0.0388	-2545.29
0.9298,0.0702	-2592.34
0.9375,0.0625	-2568.31
0.8773,0.1227	-2629.50
0.9334,0.0666	-2566.05
0.9800,0.0200	-2552.00
0.9686,0.0314	-2544.51
0.9352,0.0648	-2555.17
0.9394,0.0606	-2573.64
0.8932,0.1068	-2596.22
0.9339,0.0661	-2555.41
0.9842,0.0158	-2519.83
0.9733,0.0267	-2555.01
0.9404,0.0596	-2573.60
0.9431,0.0569	-2556.67
0.9001,0.0999	-2597.83
0.9269,0.0731	-2584.67
0.9863,0.0137	-2527.89
0.9777,0.0223	-2536.59
0.9394,0.0606	-2581.86
0.9505,0.0495	-2552.81
0.8790,0.1210	-2601.77
0.9147,0.0853	-2597.24
0.9833,0.0167	-2540.43
0.9777,0.0223	-2532.81
0.9411,0.0589	-2587.43
0.9472,0.0528	-2564.80
0.8964,0.1036	-2611.04
0.9156,0.0844	-2580.54
0.9815,0.0185	-2528.44
0.9754,0.0246	-2536.80
0.9416,0.0584	-2551.31
0.9480,0.0520	-2567.65
0.9054,0.0946	-2593.02
0.9339,0.0661	-2581.89
0.9799,0.0201	-2528.68
0.9761,0.0239	-2544.15
0.9301,0.0699	-2605.29
0.9608,0.0392	-2561.34
0.8957,0.1043	-2593.84
0.9381,0.0619	-2576.41
0.9745,0.0255	-2547.82
0.9815,0.0185	-2544.32
0.9324,0.0676	-2566.18
0.9631,0.0369	-2584.20
0.9097,0.0903	-2604.29
0.9210,0.0790	-2582.49
0.9644,0.0356	-2564.71
0.9798,0.0202	-2528.69
0.9270,0.0730	-2566.87
0.9668,0.0332	-2544.67
0.9070,0.0930	-2604.29
0.9147,0.0853	-2587.75
0.9607,0.0393	-2545.35
0.9792,0.0208	-2544.19
0.9328,0.0672	-2597.69
0.9651,0.0349	-2564.75
0.9152,0.0848	-2575.81
0.9211,0.0789	-2599.68
0.9608,0.0392	-2570.93
0.9781,0.0219	-2532.77
0.9376,0.0624	-2565.59
0.9605,0.0395	-2570.91
0.9119,0.0881	-2604.30
0.9226,0.0774	-2574.94
0.9593,0.0407	-2548.70
0.9724,0.0276	-2547.82
0.9453,0.0547	-2593.42
0.9591,0.0409	-2551.87
0.9170,0.0830	-2590.00
0.9296,0.0704	-2594.91
0.9584,0.0416	-2564.49
0.9681,0.0319	-2547.96
0.9591,0.0409	-2567.65
0.9618,0.0382	-2548.44
0.9258,0.0742	-2597.33
0.9190,0.0810	-2594.78
0.9673,0.0327	-2551.40
0.9737,0.0263	-2544.21
0.9637,0.0363	-2538.44
0.9616,0.0384	-2561.34
0.9307,0.0693	-2581.97
0.9234,0.0766	-2582.32
0.9612,0.0388	-2548.50
0.9704,0.0296	-2551.36
0.9602,0.0398	-2554.97
0.9547,0.0453	-2561.45
0.9276,0.0724	-2576.99
0.9311,0.0689	-2589.77
0.9617,0.0383	-2561.34
0.9719,0.0281	-2526.57
0.9713,0.0287	-2547.84
0.9623,0.0377	-2571.07
0.9235,0.0765	-2584.81
0.9400,0.0600	-2565.36
0.9606,0.0394	-2545.37
0.9764,0.0236	-2566.48
0.9715,0.0285	-2537.25
0.9594,0.0406	-2558.18
0.9147,0.0853	-2594.86
0.9377,0.0623	-2576.43
0.9545,0.0455	-2564.50
0.9776,0.0224	-2544.15
0.9705,0.0295	-2551.36
0.9661,0.0339	-2548.08
0.9141,0.0859	-2609.07
0.9541,0.0459	-2558.44
0.9581,0.0419	-2564.48
0.9818,0.0182	-2520.43
0.9718,0.0282	-2554.91
0.9665,0.0335	-2554.78
0.9262,0.0738	-2572.04
0.9446,0.0554	-2550.79
0.9685,0.0315	-2554.80
0.9734,0.0266	-2537.01
0.9750,0.0250	-2544.17
0.9619,0.0381	-2558.12
0.9257,0.0743	-2594.80
0.9404,0.0596	-2590.14
0.9658,0.0342	-2544.76
0.9705,0.0295	-2537.39
0.9798,0.0202	-2540.34
0.9615,0.0385	-2567.78
0.9207,0.0793	-2589.86
0.9341,0.0659	-2579.23
0.9710,0.0290	-2544.34
0.9708,0.0292	-2547.85
0.9800,0.0200	-2532.55
0.9638,0.0362	-2548.26
0.9361,0.0639	-2581.86
0.9277,0.0723	-2584.64
0.9752,0.0248	-2525.81
0.9705,0.0295	-2547.86
0.9792,0.0208	-2528.78
0.9558,0.0442	-2570.63
0.9293,0.0707	-2584.60
0.9407,0.0593	-2562.52
0.9750,0.0250	-2562.49
0.9712,0.0288	-2537.29
0.9792,0.0208	-2540.34
0.9534,0.0466	-2582.64
0.9336,0.0664	-2573.96
0.9439,0.0561	-2570.67
0.9740,0.0260	-2533.32
0.9672,0.0328	-2571.71
0.9773,0.0227	-2544.15
0.9585,0.0415	-2561.35
0.9260,0.0740	-2569.54
0.9465,0.0535	-2573.46
0.9765,0.0235	-2532.96
0.9695,0.0305	-2540.98
0.9831,0.0169	-2536.35
0.9630,0.0370	-2554.85
0.9340,0.0660	-2592.48
0.9535,0.0465	-2555.46
0.9783,0.0217	-2536.55
0.9645,0.0355	-2544.90
0.9813,0.0187	-2532.43
0.9649,0.0351	-2534.91
0.9388,0.0612	-2603.70
0.9575,0.0425	-2552.02
0.9786,0.0214	-2532.71
0.9703,0.0297	-2554.84
0.9776,0.0224	-2544.15
0.9691,0.0309	-2551.36
0.9418,0.0582	-2559.63
0.9594,0.0406	-2548.69
0.9739,0.0261	-2547.82
0.9680,0.0320	-2558.20
0.9763,0.0237	-2551.58
0.9624,0.0376	-2561.35
0.9556,0.0444	-2552.21
0.9691,0.0309	-2537.58
0.9783,0.0217	-2532.74
0.9666,0.0334	-2558.15
0.9785,0.0215	-2525.08
0.9679,0.0321	-2537.76
0.9517,0.0483	-2561.60
0.9688,0.0312	-2534.18
0.9789,0.0211	-2528.84
0.9710,0.0290	-2554.87
0.9808,0.0192	-2528.54
0.9676,0.0324	-2541.20
0.9550,0.0450	-2561.44
0.9676,0.0324	-2541.20
0.9785,0.0215	-2555.63
0.9696,0.0304	-2554.82
0.9785,0.0215	-2547.99
0.9631,0.0369	-2551.58
0.9481,0.0519	-2558.93
0.9732,0.0268	-2533.45
0.9778,0.0222	-2521.43
0.9744,0.0256	-2555.10
0.9706,0.0294	-2544.36
0.9634,0.0366	-2561.38
0.9642,0.0358	-2544.94
0.9761,0.0239	-2544.15
0.9754,0.0246	-2525.77
0.9810,0.0190	-2536.40
0.9712,0.0288	-2558.40
0.9610,0.0390	-2558.13
0.9613,0.0387	-2548.49
0.9795,0.0205	-2536.47
0.9754,0.0246	-2533.12
0.9760,0.0240	-2536.74
0.9759,0.0241	-2547.85
0.9569,0.0431	-2570.68
0.9640,0.0360	-2574.55
0.9777,0.0223	-2532.81
0.9696,0.0304	-2540.97
0.9768,0.0232	-2544.15
0.9769,0.0231	-2525.42
0.9588,0.0412	-2558.20
0.9595,0.0405	-2567.67
0.9805,0.0195	-2536.42
0.9694,0.0306	-2551.36
0.9820,0.0180	-2532.37
0.9686,0.0314	-2551.37
0.9613,0.0387	-2551.70
0.9609,0.0391	-2558.13
0.9765,0.0235	-2547.88
0.9669,0.0331	-2568.28
0.9837,0.0163	-2544.55
0.9723,0.0277	-2537.14
0.9640,0.0360	-2571.25
0.9467,0.0533	-2564.83
0.9771,0.0229	-2540.40
0.9664,0.0336	-2564.86
0.9827,0.0173	-2536.36
0.9674,0.0326	-2548.00
0.9632,0.0368	-2554.84
0.9479,0.0521	-2558.95
0.9801,0.0199	-2536.44
0.9665,0.0335	-2544.69
0.9819,0.0181	-2532.38
0.9650,0.0350	-2561.43
0.9633,0.0367	-2554.84
0.9448,0.0552	-2579.16
0.9792,0.0208	-2532.64
0.9742,0.0258	-2555.08
0.9832,0.0168	-2532.28
0.9618,0.0382	-2545.21
0.9657,0.0343	-2541.44
0.9513,0.0487	-2564.59
0.9800,0.0200	-2536.44
0.9658,0.0342	-2558.13
0.9853,0.0147	-2532.19
0.9465,0.0535	-2593.57
0.9645,0.0355	-2538.29
0.9401,0.0599	-2568.10
0.9841,0.0159	-2523.98
0.9668,0.0332	-2558.15
0.9809,0.0191	-2540.34
0.9578,0.0422	-2567.60
0.9644,0.0356	-2571.30
0.9428,0.0572	-2551.11
0.9835,0.0165	-2532.26
0.9632,0.0368	-2554.84
0.9850,0.0150	-2523.82
0.9565,0.0435	-2558.30
0.9662,0.0338	-2544.72
0.9460,0.0540	-2562.01
0.9866,0.0134	-2532.17
0.9573,0.0427	-2552.04
0.9834,0.0166	-2540.43
0.9556,0.0444	-2570.63
0.9655,0.0345	-2564.79
0.9491,0.0509	-2561.76
0.9839,0.0161	-2519.90
0.9627,0.0373	-2558.11
0.9827,0.0173	-2520.19
0.9487,0.0513	-2567.63
0.9702,0.0298	-2533.95
0.9467,0.0533	-2561.95
0.9865,0.0135	-2519.29
0.9645,0.0355	-2571.32
0.9823,0.0177	-2536.36
0.9352,0.0648	-2581.86
0.9693,0.0307	-2544.45
0.9533,0.0467	-2564.53
0.9810,0.0190	-2540.34
0.9703,0.0297	-2551.36
0.9773,0.0227	-2540.39
0.9246,0.0754	-2589.77
0.9698,0.0302	-2551.36
0.9544,0.0456	-2552.34
0.9799,0.0201	-2532.56
0.9742,0.0258	-2526.03
0.9724,0.0276	-2572.74
0.9290,0.0710	-2576.89
0.9715,0.0285	-2561.96
0.9562,0.0438	-2549.06
0.9828,0.0172	-2528.26
0.9725,0.0275	-2547.82
0.9654,0.0346	-2568.11
0.9155,0.0845	-2578.16
0.9706,0.0294	-2537.36
0.9347,0.0653	-2584.53
0.9838,0.0162	-2544.57
0.9717,0.0283	-2554.91
0.9603,0.0397	-2558.15
0.9269,0.0731	-2589.75
0.9719,0.0281	-2540.75
0.9404,0.0596	-2568.08
0.9835,0.0165	-2536.35
0.9636,0.0364	-2554.83
0.9706,0.0294	-2540.87
0.9221,0.0779	-2570.05
0.9687,0.0313	-2551.37
0.9296,0.0704	-2602.65
0.9816,0.0184	-2540.36
0.9728,0.0272	-2547.82
0.9734,0.0266	-2544.21
0.9072,0.0928	-2592.90
0.9724,0.0276	-2540.70
0.9433,0.0567	-2573.51
0.9811,0.0189	-2532.45
0.9749,0.0251	-2540.51
0.9736,0.0264	-2540.60
0.8964,0.1036	-2600.25
0.9598,0.0402	-2567.68
0.9468,0.0532	-2573.46
0.9841,0.0159	-2540.48
0.9784,0.0216	-2544.17
0.9753,0.0247	-2529.46
0.9104,0.0896	-2606.61
0.9608,0.0392	-2538.94
0.9422,0.0578	-2581.91
0.9839,0.0161	-2524.02
0.9789,0.0211	-2532.67
0.9719,0.0281	-2533.66
0.9247,0.0753	-2569.71
0.9637,0.0363	-2541.72
0.9474,0.0526	-2564.79
0.9850,0.0150	-2523.83
0.9821,0.0179	-2528.36
0.9717,0.0283	-2537.23
0.9271,0.0729	-2592.29
0.9722,0.0278	-2558.49
0.9560,0.0440	-2561.41
0.9822,0.0178	-2544.39
0.9827,0.0173	-2528.27
0.9748,0.0252	-2540.52
0.9231,0.0769	-2604.71
0.9775,0.0225	-2532.84
0.9461,0.0539	-2573.46
0.9813,0.0187	-2544.31
0.9812,0.0188	-2548.25
0.9720,0.0280	-2551.38
0.9267,0.0733	-2569.45
0.9780,0.0220	-2540.36
0.9545,0.0455	-2543.21
0.9830,0.0170	-2528.23
0.9833,0.0167	-2528.20
0.9739,0.0261	-2558.67
0.9278,0.0722	-2576.98
0.9790,0.0210	-2544.19
0.9526,0.0474	-2546.55
0.9853,0.0147	-2536.39
0.9821,0.0179	-2536.37
0.9644,0.0356	-2551.51
0.9307,0.0693	-2579.37
0.9788,0.0212	-2540.35
0.9457,0.0543	-2573.47
0.9873,0.0127	-2523.47
0.9863,0.0137	-2527.89
0.9704,0.0296	-2547.87
0.9255,0.0745	-2577.16
0.9762,0.0238	-2521.85
0.9417,0.0583	-2570.77
0.9865,0.0135	-2532.17
0.9852,0.0148	-2519.60
0.9693,0.0307	-2544.45
0.9465,0.0535	-2561.97
0.9780,0.0220	-2544.16
0.9393,0.0607	-2565.42
0.9800,0.0200	-2536.45
0.9844,0.0156	-2528.08
0.9685,0.0315	-2571.92
0.9429,0.0571	-2570.71
0.9753,0.0247	-2547.84
0.9434,0.0566	-2584.76
0.9857,0.0143	-2527.94
0.9850,0.0150	-2528.01
0.9764,0.0236	-2555.31
0.9482,0.0518	-2561.84
0.9770,0.0230	-2544.15
0.9424,0.0576	-2570.74
0.9866,0.0134	-2523.57
0.9861,0.0139	-2532.17
0.9778,0.0222	-2529.02
0.9475,0.0525	-2573.46
0.9783,0.0217	-2528.93
0.9529,0.0471	-2558.53
0.9850,0.0150	-2532.20
0.9867,0.0133	-2536.47
0.9768,0.0232	-2551.63
0.9435,0.0565	-2567.87
0.9791,0.0209	-2532.65
0.9636,0.0364	-2554.83
0.9819,0.0181	-2548.35
0.9879,0.0121	-2527.78
0.9740,0.0260	-2544.20
0.9385,0.0615	-2576.40
0.9825,0.0175	-2528.31
0.9565,0.0435	-2555.21
0.9808,0.0192	-2532.47
0.9860,0.0140	-2527.92
0.9689,0.0311	-2547.92
0.9517,0.0483	-2576.50
0.9775,0.0225	-2529.06
0.9515,0.0485	-2561.61
0.9763,0.0237	-2551.59
0.9831,0.0169	-2536.35
0.9717,0.0283	-2558.44
0.9612,0.0388	-2551.71
0.9808,0.0192	-2536.41
0.9471,0.0529	-2556.15
0.9813,0.0187	-2532.43
0.9858,0.0142	-2536.42
0.9715,0.0285	-2540.78
0.9619,0.0381	-2541.98
0.9815,0.0185	-2540.35
0.9469,0.0531	-2556.18
0.9850,0.0150	-2544.76
0.9864,0.0136	-2527.88
0.9591,0.0409	-2539.26
0.9613,0.0387	-2558.13
0.9814,0.0186	-2532.42
0.9507,0.0493	-2567.58
0.9871,0.0129	-2549.53
0.9881,0.0119	-2532.19
0.9654,0.0346	-2551.46
0.9662,0.0338	-2538.02
0.9823,0.0177	-2532.34
0.9474,0.0526	-2556.11
0.9854,0.0146	-2527.97
0.9878,0.0122	-2536.58
0.9648,0.0352	-2538.25
0.9629,0.0371	-2558.11
0.9791,0.0209	-2540.34
0.9506,0.0494	-2564.62
0.9836,0.0164	-2528.16
0.9852,0.0148	-2536.39
0.9605,0.0395	-2554.95
0.9684,0.0316	-2544.53
0.9776,0.0224	-2540.38
0.9534,0.0466	-2558.49
0.9815,0.0185	-2524.47
0.9862,0.0138	-2536.44
0.9628,0.0372	-2548.35
0.9634,0.0366	-2558.11
0.9867,0.0133	-2536.48
0.9581,0.0419	-2561.36
0.9812,0.0188	-2548.25
0.9886,0.0114	-2523.29
0.9600,0.0400	-2574.05
0.9649,0.0351	-2564.74
0.9850,0.0150	-2532.20
0.9642,0.0358	-2541.64
0.9806,0.0194	-2540.34
0.9894,0.0106	-2527.73
0.9627,0.0373	-2564.61
0.9662,0.0338	-2554.78
0.9828,0.0172	-2532.31
0.9662,0.0338	-2568.20
0.9808,0.0192	-2544.28
0.9908,0.0092	-2527.74
0.9635,0.0365	-2561.38
0.9678,0.0322	-2534.36
0.9838,0.0162	-2519.94
0.9773,0.0227	-2536.63
0.9791,0.0209	-2536.49
0.9923,0.0077	-2518.10
0.9615,0.0385	-2558.12
0.9613,0.0387	-2551.70
0.9865,0.0135	-2527.87
0.9712,0.0288	-2544.32
0.9818,0.0182	-2536.37
0.9941,0.0059	-2517.83
0.9529,0.0471	-2564.54
0.9656,0.0344	-2551.45
0.9836,0.0164	-2528.17
0.9712,0.0288	-2558.40
0.9852,0.0148	-2532.19
0.9924,0.0076	-2513.21
0.9365,0.0635	-2576.47
0.9668,0.0332	-2541.29
0.9793,0.0207	-2540.34
0.9734,0.0266	-2547.82
0.9867,0.0133	-2527.86
0.9907,0.0093	-2513.73
0.9113,0.0887	-2606.63
0.9678,0.0322	-2537.78
0.9762,0.0238	-2544.15
0.9664,0.0336	-2558.14
0.9872,0.0128	-2514.78
0.9904,0.0096	-2536.99
0.9218,0.0782	-2592.30
0.9632,0.0368	-2551.58
0.9799,0.0201	-2532.57
0.9668,0.0332	-2541.30
0.9872,0.0128	-2519.13
0.9903,0.0097	-2523.10
0.9195,0.0805	-2611.82
0.9651,0.0349	-2561.44
0.9793,0.0207	-2532.62
0.9722,0.0278	-2558.49
0.9869,0.0131	-2527.85
0.9901,0.0099	-2518.52
0.8986,0.1014	-2595.75
0.9639,0.0361	-2564.67
0.9752,0.0248	-2544.16
0.9747,0.0253	-2558.78
0.9862,0.0138	-2536.44
0.9928,0.0072	-2522.95
0.9101,0.0899	-2608.92
0.9682,0.0318	-2561.62
0.9770,0.0230	-2540.40
0.9726,0.0274	-2540.68
0.9886,0.0114	-2518.83
0.9917,0.0083	-2513.41
0.8990,0.1010	-2613.21
0.9721,0.0279	-2526.52
0.9748,0.0252	-2562.46
0.9783,0.0217	-2540.36
0.9893,0.0107	-2518.67
0.9942,0.0058	-2522.96
0.8951,0.1049	-2611.06
0.9686,0.0314	-2554.80
0.9663,0.0337	-2554.78
0.9814,0.0186	-2524.48
0.9898,0.0102	-2532.30
0.9934,0.0066	-2517.92
0.8575,0.1425	-2618.96
0.9638,0.0362	-2551.54
0.9635,0.0365	-2548.28
0.9809,0.0191	-2544.28
0.9902,0.0098	-2513.88
0.9936,0.0064	-2527.99
0.8880,0.1120	-2629.87
0.9625,0.0375	-2564.60
0.9644,0.0356	-2551.51
0.9787,0.0213	-2548.00
0.9899,0.0101	-2518.56
0.9929,0.0071	-2518.00
0.8617,0.1383	-2633.25
0.9709,0.0291	-2551.36
0.9676,0.0324	-2534.40
0.9773,0.0227	-2544.15
0.9861,0.0139	-2536.43
0.9947,0.0053	-2517.76
0.8655,0.1345	-2599.72
0.9696,0.0304	-2551.36
0.9718,0.0282	-2540.75
0.9792,0.0208	-2540.34
0.9869,0.0131	-2514.88
0.9955,0.0045	-2512.29
0.8702,0.1298	-2631.36
0.9609,0.0391	-2542.13
0.9719,0.0281	-2533.66
0.9799,0.0201	-2555.87
0.9894,0.0106	-2518.66
0.9957,0.0043	-2528.56
0.8760,0.1240	-2609.93
0.9581,0.0419	-2570.75
0.9711,0.0289	-2558.39
0.9790,0.0210	-2559.55
0.9873,0.0127	-2519.10
0.9961,0.0039	-2517.65
0.8825,0.1175	-2631.65
0.9501,0.0499	-2549.91
0.9662,0.0338	-2561.49
0.9810,0.0190	-2532.45
0.9877,0.0123	-2532.18
0.9969,0.0031	-2517.64
0.8976,0.1024	-2582.80
0.9444,0.0556	-2579.15
0.9669,0.0331	-2554.78
0.9846,0.0154	-2532.21
0.9865,0.0135	-2532.17
0.9968,0.0032	-2529.14
0.8894,0.1106	-2586.18
0.9341,0.0659	-2579.23
0.9715,0.0285	-2544.31
0.9819,0.0181	-2536.37
0.9878,0.0122	-2527.79
0.9966,0.0034	-2511.94
0.8993,0.1007	-2604.46
0.9409,0.0591	-2576.34
0.9650,0.0350	-2544.85
0.9842,0.0158	-2519.84
0.9884,0.0116	-2527.76
0.9963,0.0037	-2517.64
0.9009,0.0991	-2604.40
0.9495,0.0505	-2570.54
0.9647,0.0353	-2554.80
0.9809,0.0191	-2528.53
0.9875,0.0125	-2532.18
0.9966,0.0034	-2517.63
0.9039,0.0961	-2588.65
0.9588,0.0412	-2545.60
0.9682,0.0318	-2561.63
0.9848,0.0152	-2532.20
0.9865,0.0135	-2523.58
0.9960,0.0040	-2517.65
0.8952,0.1048	-2596.04
0.9664,0.0336	-2548.07
0.9720,0.0280	-2540.74
0.9809,0.0191	-2536.40
0.9873,0.0127	-2527.82
0.9957,0.0043	-2512.22
0.9077,0.0923	-2597.43
0.9602,0.0398	-2535.87
0.9714,0.0286	-2540.79
0.9811,0.0189	-2560.08
0.9827,0.0173	-2528.28
0.9962,0.0038	-2517.64
0.9223,0.0777	-2582.39
0.9561,0.0439	-2558.32
0.9723,0.0277	-2533.59
0.9806,0.0194	-2528.56
0.9849,0.0151	-2523.85
0.9966,0.0034	-2511.95
0.9229,0.0771	-2584.84
0.9398,0.0602	-2590.11
0.9759,0.0241	-2536.75
0.9838,0.0162	-2536.36
0.9813,0.0187	-2536.39
0.9971,0.0029	-2517.64
0.9385,0.0615	-2579.13
0.9381,0.0619	-2576.41
0.9700,0.0300	-2554.83
0.9869,0.0131	-2523.52
0.9818,0.0182	-2532.38
0.9967,0.0033	-2517.63
0.9305,0.0695	-2589.76
0.9499,0.0501	-2579.37
0.9687,0.0313	-2547.93
0.9888,0.0112	-2514.30
0.9815,0.0185	-2528.44
0.9971,0.0029	-2511.81
0.9263,0.0737	-2587.22
0.9581,0.0419	-2573.88
0.9682,0.0318	-2547.96
0.9891,0.0109	-2518.71
0.9813,0.0187	-2528.47
0.9973,0.0027	-2517.66
0.9389,0.0611	-2584.59
0.9608,0.0392	-2558.14
0.9739,0.0261	-2555.05
0.9906,0.0094	-2523.08
0.9762,0.0238	-2547.86
0.9970,0.0030	-2511.84
0.9475,0.0525	-2558.99
0.9532,0.0468	-2588.64
0.9729,0.0271	-2533.50
0.9915,0.0085	-2513.49
0.9786,0.0214	-2525.07
0.9968,0.0032	-2511.88
0.9524,0.0476	-2558.56
0.9387,0.0613	-2557.30
0.9702,0.0298	-2568.77
0.9916,0.0084	-2523.00
0.9801,0.0199	-2548.13
0.9967,0.0033	-2511.93
0.9562,0.0438	-2564.48
0.9299,0.0701	-2571.65
0.9686,0.0314	-2541.08
0.9903,0.0097	-2546.25
0.9793,0.0207	-2540.34
0.9971,0.0029	-2517.64
0.9546,0.0454	-2558.41
0.9448,0.0552	-2562.12
0.9633,0.0367	-2538.50
0.9893,0.0107	-2536.78
0.9767,0.0233	-2540.41
0.9968,0.0032	-2511.89
0.9626,0.0374	-2551.61
0.9555,0.0445	-2570.62
0.9587,0.0413	-2564.49
0.9844,0.0156	-2528.07
0.9673,0.0327	-2561.55
0.9966,0.0034	-2517.63
0.9662,0.0338	-2561.49
0.9590,0.0410	-2545.58
0.9585,0.0415	-2551.93
0.9817,0.0183	-2520.44
0.9687,0.0313	-2568.53
0.9957,0.0043	-2512.21
0.9672,0.0328	-2548.01
0.9665,0.0335	-2554.78
0.9605,0.0395	-2561.34
0.9779,0.0221	-2544.16
0.9598,0.0402	-2545.47
0.9956,0.0044	-2517.68
0.9571,0.0429	-2558.27
0.9720,0.0280	-2558.47
0.9584,0.0416	-2561.35
0.9783,0.0217	-2555.59
0.9497,0.0503	-2558.79
0.9948,0.0052	-2517.74
0.9589,0.0411	-2567.64
0.9765,0.0235	-2544.15
0.9600,0.0400	-2561.34
0.9778,0.0222	-2547.94
0.9533,0.0467	-2546.43
0.9943,0.0057	-2522.97
0.9571,0.0429	-2564.48
0.9760,0.0240	-2529.33
0.9602,0.0398	-2558.15
0.9758,0.0242	-2529.37
0.9399,0.0601	-2557.12
0.9940,0.0060	-2528.07
0.9692,0.0308	-2554.81
0.9774,0.0226	-2540.39
0.9538,0.0462	-2549.38
0.9768,0.0232	-2532.93
0.9517,0.0483	-2567.56
0.9927,0.0073	-2518.04
0.9698,0.0302	-2544.42
0.9741,0.0259	-2544.19
0.9518,0.0482	-2564.58
0.9737,0.0263	-2536.98
0.9531,0.0469	-2555.50
0.9925,0.0075	-2527.84
0.9661,0.0339	-2548.09
0.9769,0.0231	-2536.66
0.9538,0.0462	-2552.41
0.9762,0.0238	-2525.58
0.9579,0.0421	-2564.48
0.9943,0.0057	-2533.29
0.9690,0.0310	-2554.81
0.9731,0.0269	-2533.46
0.9560,0.0440	-2564.48
0.9746,0.0254	-2558.77
0.9631,0.0369	-2561.37
0.9953,0.0047	-2517.69
0.9635,0.0365	-2541.73
0.9690,0.0310	-2547.92
0.9626,0.0374	-2561.36
0.9804,0.0196	-2528.60
0.9541,0.0459	-2561.48
0.9951,0.0049	-2517.71
0.9690,0.0310	-2568.58
0.9672,0.0328	-2554.78
0.9525,0.0475	-2564.55
0.9788,0.0212	-2536.51
0.9371,0.0629	-2568.35
0.9956,0.0044	-2517.67
0.9682,0.0318	-2534.30
0.9650,0.0350	-2548.16
0.9634,0.0366	-2554.84
0.9759,0.0241	-2540.45
0.9386,0.0614	-2598.21
0.9946,0.0054	-2528.19
0.9685,0.0315	-2568.50
0.9634,0.0366	-2541.75
0.9515,0.0485	-2564.58
0.9757,0.0243	-2544.16
0.9241,0.0759	-2579.78
0.9940,0.0060	-2517.84
0.9744,0.0256	-2547.82
0.9618,0.0382	-2554.89
0.9423,0.0577	-2548.40
0.9794,0.0206	-2532.62
0.9228,0.0772	-2592.29
0.9954,0.0046	-2512.31
0.9755,0.0245	-2540.47
0.9632,0.0368	-2561.37
0.9343,0.0657	-2592.50
0.9794,0.0206	-2528.75
0.9372,0.0628	-2562.93
0.9951,0.0049	-2523.03
0.9764,0.0236	-2555.32
0.9688,0.0312	-2534.18
0.9120,0.0880	-2594.95
0.9751,0.0249	-2558.84
0.9484,0.0516	-2582.20
0.9945,0.0055	-2517.78
0.9706,0.0294	-2554.85
0.9687,0.0313	-2554.80
0.9150,0.0850	-2592.48
0.9720,0.0280	-2544.28
0.9455,0.0545	-2559.20
0.9941,0.0059	-2528.09
0.9702,0.0298	-2554.84
0.9642,0.0358	-2554.81
0.9212,0.0788	-2584.93
0.9650,0.0350	-2548.16
0.9536,0.0464	-2567.55
0.9932,0.0068	-2522.94
0.9715,0.0285	-2558.43
0.9607,0.0393	-2567.73
0.9349,0.0651	-2595.19
0.9672,0.0328	-2544.63
