#isoforms=['ENSG00000101294.SE.1.A.up_ENSG00000101294.SE.1.A.SE1_ENSG00000101294.SE.1.A.dn','ENSG00000101294.SE.1.B.up_ENSG00000101294.SE.1.B.dn']	exon_lens=('ENSG00000101294.SE.1.A.up',99),('ENSG00000101294.SE.1.A.SE1',376),('ENSG00000101294.SE.1.A.dn',89),('ENSG00000101294.SE.1.B.up',99),('ENSG00000101294.SE.1.B.dn',89)	iters=5000	burn_in=500	lag=10	percent_accept=90.79	proposal_type=drift	counts=(0,0):170,(0,1):1,(1,0):59,(1,1):83	assigned_counts=0:85,1:58	chrom=chr20	strand=+	mRNA_starts=31527484,31527484	mRNA_ends=31545035,31545035
sampled_psi	log_score
0.2158,0.7842	-915.53
0.3633,0.6367	-921.59
0.2754,0.7246	-916.87
0.3278,0.6722	-929.90
0.2823,0.7177	-918.82
0.3028,0.6972	-924.10
0.2291,0.7709	-921.12
0.4258,0.5742	-930.70
0.2677,0.7323	-917.83
0.3061,0.6939	-920.81
0.3020,0.6980	-923.27
0.2843,0.7157	-926.22
0.2416,0.7584	-917.09
0.4315,0.5685	-931.41
0.2796,0.7204	-913.13
0.2809,0.7191	-919.75
0.2868,0.7132	-924.32
0.2808,0.7192	-920.69
0.2452,0.7548	-908.01
0.4022,0.5978	-928.61
0.2973,0.7027	-923.29
0.2825,0.7175	-916.96
0.3053,0.6947	-924.91
0.3178,0.6822	-926.37
0.2899,0.7101	-932.32
0.4330,0.5670	-931.45
0.2891,0.7109	-925.17
0.2932,0.7068	-921.57
0.3079,0.6921	-922.46
0.2897,0.7103	-922.47
0.2461,0.7539	-919.23
0.4526,0.5474	-933.30
0.3018,0.6982	-927.46
0.3526,0.6474	-924.63
0.3270,0.6730	-925.59
0.2552,0.7448	-922.22
0.3324,0.6676	-923.52
0.4199,0.5801	-930.23
0.3332,0.6668	-921.45
0.3569,0.6431	-928.87
0.3118,0.6882	-920.11
0.2545,0.7455	-922.24
0.3432,0.6568	-925.06
0.3845,0.6155	-926.24
0.3369,0.6631	-922.26
0.3749,0.6251	-927.42
0.2783,0.7217	-915.95
0.2654,0.7346	-920.89
0.3015,0.6985	-917.39
0.3972,0.6028	-930.96
0.3003,0.6997	-918.20
0.3080,0.6920	-924.08
0.2268,0.7732	-913.89
0.2570,0.7430	-921.09
0.2567,0.7433	-924.29
0.4325,0.5675	-928.72
0.2889,0.7111	-920.67
0.3279,0.6721	-930.62
0.2366,0.7634	-909.02
0.2199,0.7801	-917.89
0.2709,0.7291	-914.85
0.4114,0.5886	-927.86
0.2825,0.7175	-926.28
0.3257,0.6743	-919.77
0.2687,0.7313	-918.83
0.2560,0.7440	-915.79
0.2873,0.7127	-923.40
0.3469,0.6531	-929.55
0.2925,0.7075	-922.45
0.2995,0.7005	-916.48
0.2833,0.7167	-919.75
0.2630,0.7370	-923.00
0.2856,0.7144	-922.51
0.3285,0.6715	-927.03
0.3219,0.6781	-923.36
0.3067,0.6933	-916.74
0.2450,0.7550	-913.64
0.3074,0.6926	-918.39
0.2510,0.7490	-914.72
0.3807,0.6193	-925.61
0.3096,0.6904	-928.08
0.2892,0.7108	-922.47
0.2675,0.7325	-915.81
0.3369,0.6631	-926.32
0.2557,0.7443	-915.79
0.3778,0.6222	-927.48
0.3409,0.6591	-926.34
0.2817,0.7183	-921.62
0.2555,0.7445	-922.21
0.3529,0.6471	-925.25
0.2848,0.7152	-929.88
0.3995,0.6005	-930.56
0.3282,0.6718	-923.45
0.3235,0.6765	-928.54
0.2218,0.7782	-914.03
0.3208,0.6792	-922.60
0.2676,0.7324	-915.81
0.3769,0.6231	-922.94
0.3713,0.6287	-925.76
0.3641,0.6359	-926.09
0.2548,0.7452	-922.23
0.3294,0.6706	-921.33
0.2644,0.7356	-922.96
0.3066,0.6934	-923.26
0.3498,0.6502	-924.56
0.3308,0.6692	-929.13
0.2616,0.7384	-915.78
0.3001,0.6999	-923.28
0.3168,0.6832	-917.16
0.3469,0.6531	-920.06
0.3851,0.6149	-928.60
0.3168,0.6832	-918.70
0.3036,0.6964	-919.94
0.2694,0.7306	-919.82
0.3180,0.6820	-922.56
0.3321,0.6679	-923.51
0.3161,0.6839	-922.53
0.3010,0.6990	-921.59
0.2776,0.7224	-919.76
0.2307,0.7693	-916.21
0.3234,0.6766	-922.64
0.3210,0.6790	-921.10
0.2975,0.7025	-920.71
0.3251,0.6749	-920.48
0.3040,0.6960	-920.78
0.2357,0.7643	-920.78
0.2972,0.7028	-925.87
0.2894,0.7106	-924.27
0.2731,0.7269	-918.81
0.2681,0.7319	-916.82
0.2864,0.7136	-913.37
0.2372,0.7628	-920.71
0.3113,0.6887	-925.66
0.2621,0.7379	-916.82
0.2480,0.7520	-921.39
0.2606,0.7394	-916.83
0.3237,0.6763	-921.91
0.2366,0.7634	-920.73
0.2856,0.7144	-916.09
0.2977,0.7023	-925.01
0.2741,0.7259	-917.83
0.2743,0.7257	-914.91
0.3169,0.6831	-924.85
0.2027,0.7973	-914.88
0.2411,0.7589	-922.83
0.2578,0.7422	-912.61
0.2514,0.7486	-915.81
0.2767,0.7233	-913.04
0.3001,0.6999	-919.89
0.2160,0.7840	-910.36
0.2128,0.7872	-916.98
0.2484,0.7516	-912.52
0.2214,0.7786	-912.78
0.2941,0.7059	-926.82
0.2798,0.7202	-914.08
0.1989,0.8011	-924.86
0.2039,0.7961	-916.17
0.2446,0.7554	-919.28
0.2586,0.7414	-916.84
0.2593,0.7407	-912.63
0.2648,0.7352	-917.84
0.2137,0.7863	-920.84
0.2108,0.7892	-914.45
0.2346,0.7654	-922.01
0.2550,0.7450	-913.65
0.2741,0.7259	-917.83
0.2753,0.7247	-921.71
0.2244,0.7756	-925.11
0.2306,0.7694	-917.42
0.2755,0.7245	-913.00
0.2755,0.7245	-932.34
0.2739,0.7261	-920.75
0.2579,0.7421	-910.50
0.2259,0.7741	-916.38
0.2327,0.7673	-910.19
0.2575,0.7425	-918.96
0.2781,0.7219	-922.62
0.2967,0.7033	-917.25
0.2546,0.7454	-916.87
0.2235,0.7765	-911.49
0.2729,0.7271	-919.79
0.2504,0.7496	-920.21
0.2842,0.7158	-926.22
0.2656,0.7344	-921.90
0.2805,0.7195	-916.93
0.2527,0.7473	-916.89
0.2916,0.7084	-923.34
0.2635,0.7365	-913.73
0.2464,0.7536	-918.10
0.3047,0.6953	-923.26
0.2755,0.7245	-913.97
0.2855,0.7145	-918.84
0.3311,0.6689	-921.39
0.2658,0.7342	-919.87
0.2446,0.7554	-919.27
0.3226,0.6774	-927.82
0.2764,0.7236	-917.84
0.3640,0.6360	-926.09
0.2916,0.7084	-924.23
0.2688,0.7312	-916.82
0.2539,0.7461	-923.34
0.3669,0.6331	-925.07
0.3095,0.6905	-920.86
0.3325,0.6675	-924.22
0.3519,0.6481	-929.50
0.2785,0.7215	-930.23
0.3013,0.6987	-924.95
0.3267,0.6733	-924.15
0.2733,0.7267	-924.67
0.3211,0.6789	-925.60
0.3351,0.6649	-922.20
0.3220,0.6780	-927.83
0.2759,0.7241	-916.87
0.2653,0.7347	-915.80
0.3092,0.6908	-921.66
0.2981,0.7019	-923.29
0.3391,0.6609	-923.66
0.3205,0.6795	-926.35
0.2567,0.7433	-915.79
0.2204,0.7796	-917.86
0.2656,0.7344	-916.82
0.2820,0.7180	-924.43
0.2827,0.7173	-920.68
0.2557,0.7443	-926.47
0.2363,0.7637	-926.62
0.2270,0.7730	-910.21
0.2455,0.7545	-917.00
0.3055,0.6945	-924.91
0.2768,0.7232	-924.57
0.2489,0.7511	-924.67
0.2140,0.7860	-918.21
0.2396,0.7604	-920.60
0.2683,0.7317	-914.82
0.2853,0.7147	-918.84
0.2368,0.7632	-912.53
0.2544,0.7456	-910.42
0.2170,0.7830	-911.63
0.2487,0.7513	-920.26
0.2585,0.7415	-922.11
0.2892,0.7108	-925.17
0.2160,0.7840	-924.55
0.2596,0.7404	-917.88
0.2608,0.7392	-925.16
0.2482,0.7518	-915.85
0.2673,0.7327	-917.83
0.2664,0.7336	-912.77
0.2394,0.7606	-914.83
0.2174,0.7826	-911.62
0.2346,0.7654	-914.92
0.2346,0.7654	-919.65
0.2516,0.7484	-919.08
0.2553,0.7447	-913.65
0.2319,0.7681	-914.98
0.2235,0.7765	-913.98
0.2890,0.7110	-918.87
0.1970,0.8030	-909.61
0.2584,0.7416	-914.73
0.2785,0.7215	-918.80
0.2604,0.7396	-923.09
0.2258,0.7742	-921.31
0.2349,0.7651	-917.27
0.1873,0.8127	-915.97
0.2646,0.7354	-921.93
0.2519,0.7481	-919.07
0.2503,0.7497	-919.11
0.2296,0.7704	-915.04
0.2036,0.7964	-920.27
0.1906,0.8094	-925.82
0.2591,0.7409	-914.73
0.3355,0.6645	-922.21
0.2429,0.7571	-918.19
0.2383,0.7617	-922.98
0.2051,0.7949	-913.39
0.2353,0.7647	-919.62
0.2926,0.7074	-922.45
0.3439,0.6561	-932.17
0.2423,0.7577	-920.49
0.2289,0.7711	-912.63
0.2284,0.7716	-915.07
0.2348,0.7652	-910.19
0.3009,0.6991	-917.37
0.3429,0.6571	-924.40
0.2740,0.7260	-920.75
0.2012,0.7988	-914.96
0.2301,0.7699	-913.82
0.2523,0.7477	-923.41
0.2903,0.7097	-914.42
0.3242,0.6758	-924.86
0.3155,0.6845	-923.30
0.2124,0.7876	-915.69
0.2528,0.7472	-916.89
0.2826,0.7174	-908.57
0.3084,0.6916	-920.04
0.2914,0.7086	-913.57
0.3194,0.6806	-922.58
0.2550,0.7450	-910.43
0.2966,0.7034	-928.48
0.2525,0.7475	-914.72
0.2868,0.7132	-917.03
0.2865,0.7135	-919.76
0.3045,0.6955	-927.39
0.2519,0.7481	-921.25
0.2973,0.7027	-924.15
0.2607,0.7393	-919.95
0.2791,0.7209	-921.65
0.2748,0.7252	-924.62
0.3349,0.6651	-925.63
0.2232,0.7768	-916.48
0.3252,0.6748	-928.51
0.2811,0.7189	-921.63
0.2091,0.7909	-918.52
0.2745,0.7255	-922.69
0.3069,0.6931	-915.12
0.2340,0.7660	-913.74
0.3262,0.6738	-922.69
0.2753,0.7247	-919.77
0.2627,0.7373	-919.92
0.2860,0.7140	-921.59
0.3131,0.6869	-922.50
0.2380,0.7620	-910.20
0.3115,0.6885	-923.28
0.2809,0.7191	-918.81
0.2633,0.7367	-921.96
0.2979,0.7021	-919.86
0.3324,0.6676	-924.22
0.2657,0.7343	-916.82
0.3125,0.6875	-924.07
0.2409,0.7591	-917.10
0.2646,0.7354	-925.00
0.4150,0.5850	-928.03
0.3031,0.6969	-927.43
0.2557,0.7443	-915.79
0.2487,0.7513	-922.47
0.2642,0.7358	-911.70
0.2598,0.7402	-922.07
0.4126,0.5874	-930.74
0.3317,0.6683	-924.91
0.2913,0.7087	-917.12
0.2510,0.7490	-919.10
0.2399,0.7601	-915.98
0.3214,0.6786	-923.35
0.4187,0.5813	-930.85
0.3410,0.6590	-925.68
0.2471,0.7529	-921.43
0.2423,0.7577	-913.65
0.2850,0.7150	-917.00
0.3433,0.6567	-927.65
0.4189,0.5811	-930.53
0.3575,0.6425	-927.12
0.2086,0.7914	-911.89
0.2759,0.7241	-920.73
0.2771,0.7229	-921.68
0.2833,0.7167	-917.90
0.4436,0.5564	-931.48
0.3422,0.6578	-923.08
0.2121,0.7879	-907.83
0.2663,0.7337	-918.85
0.2798,0.7202	-921.64
0.3156,0.6844	-922.53
0.4368,0.5632	-931.03
0.3294,0.6706	-922.75
0.2147,0.7853	-914.28
0.2736,0.7264	-925.64
0.2916,0.7084	-918.02
0.3154,0.6846	-919.42
0.4495,0.5505	-931.07
0.3742,0.6258	-928.94
0.1957,0.8043	-913.91
0.3231,0.6769	-916.72
0.2924,0.7076	-924.22
0.3058,0.6942	-923.26
0.3406,0.6594	-931.62
0.3617,0.6383	-926.03
0.2099,0.7901	-913.17
0.2829,0.7171	-913.24
0.3162,0.6838	-929.47
0.3163,0.6837	-926.39
0.3292,0.6708	-924.18
0.3334,0.6666	-923.54
0.1952,0.8048	-916.77
0.3448,0.6552	-927.65
0.3690,0.6310	-928.37
0.3214,0.6786	-919.62
0.3527,0.6473	-920.99
0.3608,0.6392	-922.01
0.2126,0.7874	-915.68
0.2631,0.7369	-924.03
0.3485,0.6515	-923.90
0.2605,0.7395	-921.00
0.3348,0.6652	-924.25
0.3364,0.6636	-918.84
0.2401,0.7599	-911.36
0.2651,0.7349	-925.99
0.3354,0.6646	-926.31
0.2552,0.7448	-923.29
0.3355,0.6645	-922.21
0.3232,0.6768	-923.38
0.2594,0.7406	-922.08
0.2364,0.7636	-919.57
0.2876,0.7124	-922.49
0.2612,0.7388	-918.90
0.2716,0.7284	-915.85
0.3770,0.6230	-928.97
0.2819,0.7181	-920.69
0.2467,0.7533	-920.33
0.2863,0.7137	-917.93
0.2788,0.7212	-916.90
0.3018,0.6982	-919.08
0.3610,0.6390	-925.45
0.2689,0.7311	-918.83
0.2430,0.7570	-923.87
0.2512,0.7488	-912.54
0.2716,0.7284	-918.81
0.2984,0.7016	-921.57
0.3310,0.6690	-921.38
0.3099,0.6901	-916.87
0.2433,0.7567	-917.05
0.2653,0.7347	-916.82
0.3013,0.6987	-917.38
0.3323,0.6677	-924.91
0.3801,0.6199	-928.51
0.2479,0.7521	-920.29
0.2664,0.7336	-916.82
0.2540,0.7460	-921.18
0.2919,0.7081	-917.14
0.3026,0.6974	-929.11
0.3083,0.6917	-922.46
0.2239,0.7761	-911.48
0.2467,0.7533	-920.33
0.2919,0.7081	-924.22
0.2622,0.7378	-916.82
0.3194,0.6806	-930.90
0.3164,0.6836	-925.62
0.2934,0.7066	-918.93
0.2704,0.7296	-924.77
0.3015,0.6985	-919.91
0.3303,0.6697	-924.90
0.2679,0.7321	-926.88
0.3767,0.6233	-927.46
0.2782,0.7218	-921.66
0.2941,0.7059	-920.69
0.2963,0.7037	-925.03
0.3127,0.6873	-918.56
0.2479,0.7521	-923.62
0.3376,0.6624	-925.65
0.2500,0.7500	-915.83
0.3226,0.6774	-921.88
0.2996,0.7004	-924.98
0.3416,0.6584	-923.06
0.2388,0.7612	-916.00
0.3524,0.6476	-923.41
0.2420,0.7580	-911.37
0.2669,0.7331	-918.84
0.2524,0.7476	-917.98
0.3609,0.6391	-927.16
0.2538,0.7462	-912.56
0.3062,0.6938	-921.63
0.2607,0.7393	-922.04
0.2662,0.7338	-920.87
0.2523,0.7477	-914.72
0.3340,0.6660	-925.62
0.2634,0.7366	-920.93
0.3116,0.6884	-921.69
0.2407,0.7593	-918.26
0.2616,0.7384	-916.82
0.2410,0.7590	-919.40
0.3329,0.6671	-924.22
0.2147,0.7853	-918.17
0.3177,0.6823	-926.37
0.2496,0.7504	-919.13
0.2321,0.7679	-917.37
0.2662,0.7338	-914.79
0.3480,0.6520	-925.77
0.1765,0.8235	-910.84
0.3399,0.6601	-929.65
0.2561,0.7439	-922.19
0.2208,0.7792	-926.67
0.2854,0.7146	-916.09
0.3364,0.6636	-924.28
0.2202,0.7798	-914.08
0.3140,0.6860	-927.98
0.2787,0.7213	-916.90
0.2432,0.7568	-915.91
0.2949,0.7051	-929.41
0.3538,0.6462	-927.07
0.2437,0.7563	-914.77
0.2894,0.7106	-927.86
0.2729,0.7271	-922.73
0.2836,0.7164	-916.05
0.2626,0.7374	-917.85
0.3667,0.6333	-922.34
0.2272,0.7728	-912.66
0.2957,0.7043	-920.70
0.2661,0.7339	-922.90
0.3040,0.6960	-923.26
0.2415,0.7585	-923.95
0.3538,0.6462	-926.47
0.2782,0.7218	-920.71
0.3074,0.6926	-925.70
0.2623,0.7377	-926.13
0.2721,0.7279	-920.78
0.2454,0.7546	-918.13
0.3350,0.6650	-923.57
0.3052,0.6948	-919.97
0.2583,0.7417	-918.95
0.2326,0.7674	-910.19
0.2951,0.7049	-920.70
0.2298,0.7702	-908.98
0.3136,0.6864	-919.37
0.3222,0.6778	-922.62
0.2578,0.7422	-923.18
0.2224,0.7776	-916.52
0.2703,0.7297	-916.83
0.2174,0.7826	-925.71
0.2801,0.7199	-920.70
0.3328,0.6672	-922.14
0.2530,0.7470	-923.38
0.2412,0.7588	-915.95
0.2384,0.7616	-912.52
0.2602,0.7398	-921.01
0.2930,0.7070	-925.97
0.3200,0.6800	-922.59
0.2483,0.7517	-915.84
0.2846,0.7154	-916.07
0.2320,0.7680	-916.17
0.2712,0.7288	-919.80
0.2745,0.7255	-922.69
0.3327,0.6673	-920.05
0.2662,0.7338	-920.87
0.3061,0.6939	-928.18
0.2482,0.7518	-914.74
0.2954,0.7046	-921.57
0.2801,0.7199	-917.86
0.3423,0.6577	-922.43
0.2498,0.7502	-919.13
0.2959,0.7041	-921.57
0.2325,0.7675	-918.55
0.3078,0.6922	-919.21
0.2782,0.7218	-921.66
0.3358,0.6642	-925.63
0.3099,0.6901	-924.07
0.2936,0.7064	-918.05
0.2460,0.7540	-913.63
0.2478,0.7522	-920.29
0.3342,0.6658	-921.49
0.3325,0.6675	-924.92
0.2336,0.7664	-922.06
0.3208,0.6792	-921.85
0.2142,0.7858	-915.60
0.2246,0.7754	-922.62
0.3487,0.6513	-922.03
0.2793,0.7207	-917.86
0.2603,0.7397	-919.96
0.2952,0.7048	-927.66
0.2523,0.7477	-916.89
0.2464,0.7536	-915.87
0.2928,0.7072	-923.33
0.2974,0.7026	-924.15
0.2453,0.7547	-920.38
0.3030,0.6970	-919.10
0.2616,0.7384	-917.86
0.2542,0.7458	-919.02
0.2714,0.7286	-920.79
0.2332,0.7668	-918.52
0.2723,0.7277	-930.60
0.3437,0.6563	-921.83
0.2816,0.7184	-922.56
0.3029,0.6971	-919.93
0.2354,0.7646	-916.08
0.2202,0.7798	-920.40
0.3291,0.6709	-919.19
0.3775,0.6225	-927.47
0.2907,0.7093	-916.22
0.2650,0.7350	-917.84
0.2206,0.7794	-911.54
0.2337,0.7663	-920.88
0.3416,0.6584	-926.34
0.4332,0.5668	-930.11
0.2812,0.7188	-916.94
0.2818,0.7182	-917.88
0.2671,0.7329	-920.86
0.2931,0.7069	-921.57
0.2717,0.7283	-913.88
0.4527,0.5473	-931.59
0.3004,0.6996	-925.81
0.2790,0.7210	-919.76
0.2814,0.7186	-928.19
0.2303,0.7697	-919.84
0.2602,0.7398	-916.83
0.4159,0.5841	-928.08
0.3427,0.6573	-919.19
0.2614,0.7386	-913.71
0.2680,0.7320	-919.84
0.2993,0.7007	-919.88
0.2910,0.7090	-919.79
0.3603,0.6397	-926.00
0.3622,0.6378	-928.88
0.2876,0.7124	-927.02
0.2835,0.7165	-917.90
0.3298,0.6702	-918.51
0.3090,0.6910	-916.83
0.3062,0.6938	-927.35
0.3230,0.6770	-916.71
0.3243,0.6757	-925.59
0.2891,0.7109	-917.97
0.2943,0.7057	-916.32
0.3249,0.6751	-922.67
0.3233,0.6767	-919.68
0.3588,0.6412	-921.33
0.3135,0.6865	-927.99
0.2274,0.7726	-912.65
0.2616,0.7384	-916.82
0.3198,0.6802	-929.37
0.2990,0.7010	-916.46
0.3503,0.6497	-924.57
0.3286,0.6714	-918.45
0.2307,0.7693	-913.80
0.3078,0.6922	-920.02
0.3286,0.6714	-923.45
0.3221,0.6779	-921.87
0.2998,0.7002	-924.97
0.3212,0.6788	-922.60
0.2528,0.7472	-915.80
0.2862,0.7138	-920.67
0.3038,0.6962	-924.09
0.3249,0.6751	-924.13
0.3445,0.6555	-919.29
0.2588,0.7412	-926.30
0.2879,0.7121	-927.01
0.2616,0.7384	-928.23
0.2919,0.7081	-917.14
0.2851,0.7149	-924.35
0.3377,0.6623	-920.93
0.2963,0.7037	-920.70
0.2607,0.7393	-922.04
0.2879,0.7121	-917.96
0.2987,0.7013	-917.31
0.2972,0.7028	-924.15
0.2884,0.7116	-923.38
0.2672,0.7328	-916.82
0.2572,0.7428	-916.85
0.2582,0.7418	-916.84
0.2836,0.7164	-917.90
0.3071,0.6929	-916.75
0.2784,0.7216	-909.28
0.2992,0.7008	-920.73
0.2649,0.7351	-918.86
0.2498,0.7502	-913.63
0.2806,0.7194	-928.23
0.3302,0.6698	-923.48
0.2686,0.7314	-926.84
0.2910,0.7090	-922.46
0.2400,0.7600	-917.13
0.2732,0.7268	-922.72
0.2194,0.7806	-916.64
0.3584,0.6416	-926.54
0.2912,0.7088	-922.46
0.2791,0.7209	-918.81
0.2610,0.7390	-920.99
0.2679,0.7321	-918.83
0.2180,0.7820	-915.43
0.3054,0.6946	-927.37
0.3009,0.6991	-926.64
0.2576,0.7424	-921.08
0.2297,0.7703	-913.82
0.2804,0.7196	-919.75
0.2355,0.7645	-918.43
0.2938,0.7062	-918.06
0.3087,0.6913	-925.69
0.2660,0.7340	-921.89
0.2387,0.7613	-917.16
0.2881,0.7119	-922.48
0.3003,0.6997	-916.51
0.2564,0.7436	-915.79
0.3069,0.6931	-926.52
0.2781,0.7219	-918.80
0.2324,0.7676	-917.35
0.2608,0.7392	-923.08
0.2591,0.7409	-913.68
0.2158,0.7842	-920.69
0.2520,0.7480	-917.99
0.2821,0.7179	-912.28
0.2336,0.7664	-922.06
0.2830,0.7170	-917.89
0.3002,0.6998	-921.58
0.2374,0.7626	-917.20
0.2867,0.7133	-922.50
0.3451,0.6549	-925.73
0.2550,0.7450	-923.30
0.3041,0.6959	-917.47
0.2727,0.7273	-913.90
0.2348,0.7652	-913.73
0.3043,0.6957	-926.57
0.3600,0.6400	-924.27
0.2525,0.7475	-925.57
0.2722,0.7278	-913.89
0.2767,0.7233	-923.61
0.2142,0.7858	-916.91
0.2886,0.7114	-917.97
0.3534,0.6466	-924.65
0.2718,0.7282	-915.85
0.3015,0.6985	-923.27
0.2736,0.7264	-921.73
0.2287,0.7713	-908.98
0.2918,0.7082	-918.02
0.3224,0.6776	-921.88
0.2901,0.7099	-927.83
0.2532,0.7468	-915.80
0.3064,0.6936	-922.45
0.2642,0.7358	-914.77
0.3254,0.6746	-920.49
0.2675,0.7325	-919.84
0.2968,0.7032	-919.84
0.2698,0.7302	-917.82
0.2960,0.7040	-920.70
0.2676,0.7324	-917.83
0.2913,0.7087	-918.01
0.2636,0.7364	-918.87
0.2980,0.7020	-919.00
0.3031,0.6969	-920.77
0.2967,0.7033	-923.30
0.2894,0.7106	-916.18
0.2779,0.7221	-925.49
0.2730,0.7270	-924.68
0.2692,0.7308	-911.83
0.3214,0.6786	-923.35
0.2884,0.7116	-919.77
0.2461,0.7539	-906.91
0.2812,0.7188	-919.75
0.2324,0.7676	-917.36
0.2765,0.7235	-918.80
0.3531,0.6469	-921.62
0.3079,0.6921	-924.08
0.2577,0.7423	-917.90
0.2869,0.7131	-920.67
0.2736,0.7264	-918.80
0.3250,0.6750	-924.86
0.3759,0.6241	-926.42
0.3032,0.6968	-918.27
0.2465,0.7535	-918.10
0.3214,0.6786	-924.85
0.2737,0.7263	-916.85
0.2953,0.7047	-918.09
0.3492,0.6508	-922.68
0.2919,0.7081	-920.68
0.2278,0.7722	-910.20
0.3113,0.6887	-922.48
0.2855,0.7145	-919.76
0.2855,0.7145	-915.17
0.2882,0.7118	-918.87
0.2591,0.7409	-918.93
0.2496,0.7504	-915.83
0.3164,0.6836	-919.45
0.2425,0.7575	-913.65
0.2849,0.7151	-923.44
0.3330,0.6670	-928.39
0.2595,0.7405	-927.32
0.2824,0.7176	-919.75
0.2966,0.7034	-920.71
0.2558,0.7442	-909.38
0.2735,0.7265	-915.87
0.3771,0.6229	-928.47
0.3067,0.6933	-925.71
0.3486,0.6514	-927.03
0.2590,0.7410	-922.09
0.2925,0.7075	-918.03
0.2385,0.7615	-918.33
0.3305,0.6695	-925.60
0.3371,0.6629	-922.26
0.3620,0.6380	-928.31
0.2376,0.7624	-917.19
0.3665,0.6335	-926.15
0.2796,0.7204	-927.33
0.3093,0.6907	-923.27
0.3130,0.6870	-919.35
0.3590,0.6410	-923.08
0.2320,0.7680	-908.99
0.3286,0.6714	-921.31
0.2743,0.7257	-920.75
0.3111,0.6889	-922.48
0.3016,0.6984	-915.71
0.3472,0.6528	-922.60
0.2265,0.7735	-910.21
0.3375,0.6625	-920.25
0.2827,0.7173	-925.34
0.3525,0.6475	-925.85
0.2844,0.7156	-922.52
0.3323,0.6677	-924.91
0.2324,0.7676	-917.36
0.3816,0.6184	-930.47
0.2872,0.7128	-919.76
0.3368,0.6632	-926.32
0.2887,0.7113	-920.67
0.3146,0.6854	-927.97
0.2236,0.7764	-920.20
0.3249,0.6751	-915.35
0.2727,0.7273	-914.88
0.3574,0.6426	-923.01
0.2991,0.7009	-923.28
0.3160,0.6840	-914.81
0.1888,0.8112	-907.10
0.3110,0.6890	-921.68
0.2739,0.7261	-920.75
0.3427,0.6573	-927.65
0.2875,0.7125	-923.40
0.2789,0.7211	-921.65
0.2088,0.7912	-918.55
0.3546,0.6454	-930.68
0.3232,0.6768	-923.38
0.3486,0.6514	-924.53
0.2707,0.7293	-919.81
0.2669,0.7331	-922.88
0.2331,0.7669	-918.52
0.4059,0.5941	-928.36
0.3348,0.6652	-925.63
0.3278,0.6722	-924.16
0.2892,0.7108	-917.98
0.2843,0.7157	-916.06
0.2286,0.7714	-917.50
0.3683,0.6317	-926.74
0.3612,0.6388	-924.32
0.3809,0.6191	-923.67
0.3486,0.6514	-923.28
0.2831,0.7169	-927.18
0.2635,0.7365	-919.90
0.3131,0.6869	-922.50
0.3016,0.6984	-920.75
0.3438,0.6562	-930.24
0.3249,0.6751	-926.32
0.2882,0.7118	-921.58
0.2845,0.7155	-920.68
0.2916,0.7084	-918.02
0.3365,0.6635	-926.32
0.3091,0.6909	-923.27
0.2818,0.7182	-921.62
0.2789,0.7211	-908.36
0.3015,0.6985	-919.07
0.2821,0.7179	-926.29
0.3107,0.6893	-917.69
0.3005,0.6995	-913.14
0.2807,0.7193	-925.40
0.2933,0.7067	-918.05
0.2790,0.7210	-915.96
0.2750,0.7250	-920.74
0.3268,0.6732	-918.36
0.2510,0.7490	-924.56
0.2760,0.7240	-924.59
0.2568,0.7432	-917.91
0.2652,0.7348	-915.80
0.2947,0.7053	-923.31
0.3124,0.6876	-924.07
0.2687,0.7313	-912.82
0.2696,0.7304	-918.82
0.2584,0.7416	-925.27
0.2301,0.7699	-916.23
0.2324,0.7676	-913.77
0.2993,0.7007	-919.88
0.2426,0.7574	-926.17
0.2743,0.7257	-924.64
0.3015,0.6985	-929.15
0.2047,0.7953	-920.19
0.2057,0.7943	-920.11
0.3451,0.6549	-927.01
0.2555,0.7445	-914.72
0.2558,0.7442	-910.45
0.2984,0.7016	-920.72
0.2065,0.7935	-910.63
0.2332,0.7668	-913.76
0.3470,0.6530	-929.55
0.2777,0.7223	-923.58
0.2709,0.7291	-919.80
0.2750,0.7250	-912.99
0.2270,0.7730	-915.11
0.2519,0.7481	-917.99
0.3505,0.6495	-933.21
0.3333,0.6667	-922.15
0.2669,0.7331	-910.76
0.2916,0.7084	-920.68
0.2518,0.7482	-924.52
0.2168,0.7832	-919.34
0.3282,0.6718	-927.03
0.3477,0.6523	-926.40
0.2805,0.7195	-919.75
