#isoforms=['ENSG00000110080.SE.2.A.up_ENSG00000110080.SE.2.A.SE1_ENSG00000110080.SE.2.A.dn','ENSG00000110080.SE.2.B.up_ENSG00000110080.SE.2.B.dn']	exon_lens=('ENSG00000110080.SE.2.A.up',61),('ENSG00000110080.SE.2.A.SE1',96),('ENSG00000110080.SE.2.A.dn',190),('ENSG00000110080.SE.2.B.up',61),('ENSG00000110080.SE.2.B.dn',190)	iters=5000	burn_in=500	lag=10	percent_accept=95.53	proposal_type=drift	counts=(0,0):583,(1,0):286,(1,1):254	assigned_counts=0:539,1:1	chrom=chr11	strand=+	mRNA_starts=126407574,126407574	mRNA_ends=126408496,126408496
sampled_psi	log_score
0.9664,0.0336	-3003.22
0.9818,0.0182	-2985.16
0.9790,0.0210	-3005.16
0.9885,0.0115	-2978.89
0.9760,0.0240	-3009.07
0.9646,0.0354	-3036.62
0.9717,0.0283	-3012.89
0.9802,0.0198	-3012.92
0.9788,0.0212	-3005.17
0.9899,0.0101	-2992.18
0.9776,0.0224	-3009.01
0.9675,0.0325	-3019.98
0.9746,0.0254	-2998.19
0.9772,0.0228	-3016.54
0.9797,0.0203	-3001.25
0.9891,0.0109	-2987.71
0.9731,0.0269	-3012.83
0.9700,0.0300	-3009.52
0.9792,0.0208	-2993.58
0.9798,0.0202	-2989.60
0.9810,0.0190	-2997.20
0.9892,0.0108	-2987.69
0.9772,0.0228	-2997.75
0.9722,0.0278	-3009.31
0.9795,0.0205	-2989.66
0.9794,0.0206	-2985.83
0.9830,0.0170	-3005.09
0.9905,0.0095	-2978.23
0.9796,0.0204	-2997.39
0.9794,0.0206	-2993.55
0.9826,0.0174	-2980.87
0.9763,0.0237	-3001.62
0.9817,0.0183	-3005.08
0.9888,0.0112	-2992.24
0.9767,0.0233	-3001.56
0.9813,0.0187	-2985.28
0.9833,0.0167	-2992.88
0.9795,0.0205	-2989.66
0.9841,0.0159	-3005.13
0.9847,0.0153	-2996.83
0.9768,0.0232	-3005.29
0.9837,0.0163	-3001.01
0.9871,0.0129	-2983.71
0.9815,0.0185	-3001.11
0.9802,0.0198	-3012.91
0.9829,0.0171	-3005.09
0.9756,0.0244	-3009.08
0.9802,0.0198	-2997.30
0.9863,0.0137	-2983.90
0.9783,0.0217	-3005.20
0.9804,0.0196	-2989.46
0.9818,0.0182	-2997.11
0.9726,0.0274	-3002.14
0.9804,0.0196	-3001.19
0.9878,0.0122	-2992.32
0.9782,0.0218	-3005.20
0.9804,0.0196	-3009.02
0.9839,0.0161	-2988.67
0.9791,0.0209	-3009.00
0.9837,0.0163	-3005.11
0.9881,0.0119	-2992.29
0.9748,0.0252	-3005.47
0.9819,0.0181	-2993.10
0.9870,0.0130	-2996.72
0.9760,0.0240	-3001.65
0.9836,0.0164	-3001.01
0.9878,0.0122	-3001.10
0.9666,0.0334	-3023.38
0.9830,0.0170	-3001.04
0.9853,0.0147	-2992.59
0.9765,0.0235	-2994.14
0.9852,0.0148	-2992.60
0.9896,0.0104	-2996.75
0.9634,0.0366	-3023.44
0.9834,0.0166	-2996.94
0.9899,0.0101	-2987.60
0.9777,0.0223	-3001.45
0.9851,0.0149	-2992.62
0.9897,0.0103	-2978.48
0.9589,0.0411	-3020.53
0.9842,0.0158	-3001.00
0.9918,0.0082	-2992.18
0.9800,0.0200	-2997.33
0.9870,0.0130	-2983.74
0.9914,0.0086	-2982.68
0.9578,0.0422	-3011.28
0.9845,0.0155	-2996.85
0.9907,0.0093	-2992.17
0.9793,0.0207	-3005.14
0.9854,0.0146	-3005.21
0.9920,0.0080	-2982.54
0.9606,0.0394	-3001.22
0.9860,0.0140	-3005.27
0.9930,0.0070	-2977.40
0.9799,0.0201	-2993.47
0.9837,0.0163	-3009.22
0.9905,0.0095	-2982.86
0.9586,0.0414	-3014.27
0.9847,0.0153	-2984.33
0.9897,0.0103	-3001.33
0.9784,0.0216	-2993.75
0.9804,0.0196	-3001.19
0.9897,0.0103	-2992.19
0.9487,0.0513	-3027.64
0.9872,0.0128	-2996.72
0.9898,0.0102	-2978.47
0.9779,0.0221	-3012.80
0.9818,0.0182	-2989.13
0.9932,0.0068	-2992.28
0.9466,0.0534	-3039.38
0.9895,0.0105	-2978.57
0.9904,0.0096	-2992.17
0.9774,0.0226	-3005.25
0.9793,0.0207	-3028.27
0.9938,0.0062	-2992.35
0.9527,0.0473	-3021.24
0.9861,0.0139	-3005.28
0.9881,0.0119	-2992.29
0.9746,0.0254	-3005.49
0.9735,0.0265	-3002.01
0.9928,0.0072	-2987.31
0.9557,0.0443	-3033.16
0.9850,0.0150	-3001.00
0.9849,0.0151	-3009.36
0.9729,0.0271	-3002.09
0.9761,0.0239	-3005.35
0.9926,0.0074	-2982.43
0.9475,0.0525	-3039.35
0.9798,0.0202	-3001.25
0.9841,0.0159	-2984.51
0.9638,0.0362	-3010.31
0.9810,0.0190	-3020.87
0.9912,0.0088	-2987.44
0.9531,0.0469	-3015.16
0.9788,0.0212	-3005.17
0.9837,0.0163	-2988.72
0.9685,0.0315	-3006.25
0.9804,0.0196	-3001.19
0.9906,0.0094	-2987.51
0.9629,0.0371	-3013.69
0.9780,0.0220	-3012.80
0.9845,0.0155	-2996.85
0.9736,0.0264	-3009.20
0.9862,0.0138	-2996.74
0.9915,0.0085	-2992.17
0.9606,0.0394	-3033.16
0.9786,0.0214	-3012.82
0.9811,0.0189	-3016.94
0.9685,0.0315	-3006.25
0.9850,0.0150	-2996.81
0.9904,0.0096	-3001.44
0.9526,0.0474	-3051.26
0.9817,0.0183	-3017.02
0.9854,0.0146	-3005.21
0.9687,0.0313	-3009.66
0.9831,0.0169	-2996.97
0.9916,0.0084	-2982.64
0.9502,0.0498	-3033.38
0.9837,0.0163	-2996.91
0.9834,0.0166	-3001.02
0.9729,0.0271	-3009.25
0.9852,0.0148	-3009.39
0.9911,0.0089	-2992.16
0.9591,0.0409	-3026.83
0.9818,0.0182	-2997.10
0.9812,0.0188	-2993.22
0.9717,0.0283	-2998.74
0.9854,0.0146	-2988.37
0.9909,0.0091	-2987.48
0.9557,0.0443	-3027.02
0.9829,0.0171	-3005.09
0.9796,0.0204	-2989.64
0.9705,0.0295	-3009.46
0.9864,0.0136	-2988.17
0.9912,0.0088	-2982.72
0.9611,0.0389	-3026.75
0.9831,0.0169	-2984.79
0.9770,0.0230	-2997.78
0.9613,0.0387	-3013.90
0.9878,0.0122	-3005.50
0.9916,0.0084	-2996.95
0.9639,0.0361	-3003.72
0.9863,0.0137	-2992.47
0.9798,0.0202	-2997.36
0.9558,0.0442	-3023.94
0.9890,0.0110	-2996.72
0.9908,0.0092	-2996.85
0.9683,0.0317	-3019.96
0.9874,0.0126	-2987.99
0.9721,0.0279	-2998.66
0.9497,0.0503	-3012.85
0.9859,0.0141	-2996.76
0.9918,0.0082	-2992.18
0.9712,0.0288	-2998.85
0.9887,0.0113	-2992.24
0.9762,0.0238	-3009.06
0.9582,0.0418	-3017.47
0.9877,0.0123	-2992.32
0.9915,0.0085	-2982.65
0.9729,0.0271	-2991.34
0.9885,0.0115	-2987.81
0.9795,0.0205	-2993.54
0.9682,0.0318	-3016.55
0.9885,0.0115	-2996.71
0.9919,0.0081	-2992.18
0.9654,0.0346	-3013.40
0.9888,0.0112	-3001.20
0.9697,0.0303	-2992.21
0.9716,0.0284	-3016.43
0.9923,0.0077	-2987.35
0.9936,0.0064	-2987.28
0.9639,0.0361	-3039.85
0.9885,0.0115	-2978.91
0.9705,0.0295	-3023.44
0.9736,0.0264	-2998.39
0.9906,0.0094	-3001.49
0.9941,0.0059	-2977.03
0.9570,0.0430	-3026.93
0.9861,0.0139	-3001.01
0.9625,0.0375	-3007.25
0.9821,0.0179	-3009.09
0.9907,0.0093	-2987.50
0.9944,0.0056	-2976.94
0.9612,0.0388	-3017.12
0.9867,0.0133	-2996.73
0.9648,0.0352	-3013.47
0.9833,0.0167	-2996.95
0.9901,0.0099	-2987.57
0.9946,0.0054	-2982.08
0.9619,0.0381	-3033.19
0.9878,0.0122	-2983.51
0.9603,0.0397	-3014.03
0.9786,0.0214	-2993.70
0.9902,0.0098	-2987.56
0.9938,0.0062	-2992.35
0.9653,0.0347	-3006.76
0.9861,0.0139	-2996.75
0.9589,0.0411	-3026.83
0.9838,0.0162	-3005.12
0.9918,0.0082	-2982.58
0.9937,0.0063	-2982.22
0.9686,0.0314	-3019.96
0.9905,0.0095	-2982.87
0.9598,0.0402	-3023.62
0.9823,0.0177	-2989.01
0.9907,0.0093	-2992.17
0.9928,0.0072	-2992.24
0.9677,0.0323	-3013.18
0.9900,0.0100	-2996.78
0.9679,0.0321	-3013.16
0.9836,0.0164	-2992.83
0.9898,0.0102	-2996.76
0.9926,0.0074	-2982.43
0.9693,0.0307	-3013.05
0.9910,0.0090	-2987.47
0.9700,0.0300	-3009.52
0.9841,0.0159	-2992.76
0.9893,0.0107	-2987.68
0.9899,0.0101	-2992.18
0.9716,0.0284	-3009.36
0.9923,0.0077	-2987.34
0.9744,0.0256	-3030.98
0.9839,0.0161	-2996.89
0.9875,0.0125	-2992.34
0.9888,0.0112	-3001.20
0.9702,0.0298	-3009.50
0.9915,0.0085	-2977.88
0.9688,0.0312	-3006.21
0.9840,0.0160	-3001.01
0.9900,0.0100	-2978.39
0.9915,0.0085	-2982.65
0.9783,0.0217	-2997.58
0.9914,0.0086	-2996.91
0.9684,0.0316	-3006.27
0.9831,0.0169	-2992.91
0.9910,0.0090	-2982.76
0.9913,0.0087	-2992.17
0.9793,0.0207	-2989.71
0.9907,0.0093	-2987.50
0.9607,0.0393	-3029.96
0.9863,0.0137	-2988.18
0.9890,0.0110	-2987.72
0.9895,0.0105	-2992.20
0.9796,0.0204	-3001.26
0.9915,0.0085	-2982.66
0.9587,0.0413	-3036.28
0.9832,0.0168	-2996.96
0.9877,0.0123	-2987.93
0.9881,0.0119	-2992.29
0.9766,0.0234	-2994.12
0.9902,0.0098	-2987.56
0.9518,0.0482	-3048.21
0.9819,0.0181	-3005.08
0.9911,0.0089	-2982.73
0.9862,0.0138	-2992.47
0.9726,0.0274	-3002.14
0.9886,0.0114	-2978.86
0.9518,0.0482	-3048.21
0.9846,0.0154	-2992.68
0.9894,0.0106	-2996.74
0.9861,0.0139	-2996.75
0.9682,0.0318	-2999.46
0.9864,0.0136	-2979.60
0.9448,0.0552	-3030.94
0.9873,0.0127	-2988.00
0.9901,0.0099	-2987.57
0.9827,0.0173	-2992.96
0.9704,0.0296	-3002.50
0.9845,0.0155	-2996.85
0.9482,0.0518	-3024.78
0.9886,0.0114	-2987.79
0.9896,0.0104	-2992.19
0.9826,0.0174	-3005.09
0.9662,0.0338	-3013.32
0.9874,0.0126	-3001.08
0.9522,0.0478	-3057.21
0.9882,0.0118	-2987.85
0.9911,0.0089	-3006.30
0.9825,0.0175	-2988.97
0.9639,0.0361	-3016.86
0.9881,0.0119	-3014.39
0.9510,0.0490	-3036.30
0.9804,0.0196	-2993.36
0.9924,0.0076	-2987.34
0.9852,0.0148	-3005.20
0.9704,0.0296	-3005.99
0.9885,0.0115	-2996.71
0.9596,0.0404	-3014.13
0.9805,0.0195	-3012.94
0.9931,0.0069	-2992.27
0.9856,0.0144	-3001.00
0.9738,0.0262	-3005.57
0.9907,0.0093	-2992.16
0.9536,0.0464	-3030.20
0.9796,0.0204	-3001.26
0.9930,0.0070	-2987.30
0.9814,0.0186	-3001.12
0.9744,0.0256	-2990.94
0.9886,0.0114	-2983.32
0.9516,0.0484	-3036.28
0.9787,0.0213	-2989.87
0.9918,0.0082	-2987.38
0.9798,0.0202	-3005.12
0.9780,0.0220	-3005.21
0.9865,0.0135	-3005.32
0.9509,0.0491	-3039.27
0.9804,0.0196	-3005.10
0.9916,0.0084	-2992.17
0.9777,0.0223	-3001.45
0.9792,0.0208	-3001.29
0.9869,0.0131	-2996.72
0.9565,0.0435	-3045.51
0.9805,0.0195	-3012.94
0.9905,0.0095	-2992.17
0.9728,0.0272	-3005.68
0.9801,0.0199	-3005.11
0.9883,0.0117	-2983.40
0.9548,0.0452	-3014.87
0.9842,0.0158	-2984.47
0.9934,0.0066	-2977.27
0.9715,0.0285	-2998.78
0.9804,0.0196	-3005.10
0.9880,0.0120	-2992.30
0.9478,0.0522	-3024.84
0.9814,0.0186	-3005.09
0.9940,0.0060	-2992.40
0.9720,0.0280	-3016.42
0.9812,0.0188	-3001.13
0.9867,0.0133	-2996.73
0.9467,0.0533	-3027.87
0.9835,0.0165	-3005.11
0.9954,0.0046	-2976.58
0.9738,0.0262	-2994.73
0.9856,0.0144	-3009.45
0.9863,0.0137	-2988.19
0.9633,0.0367	-3020.18
0.9790,0.0210	-3001.32
0.9955,0.0045	-2987.36
0.9746,0.0254	-2987.25
0.9832,0.0168	-2992.88
0.9879,0.0121	-3005.51
0.9700,0.0300	-3012.99
0.9784,0.0216	-3009.00
0.9962,0.0038	-2976.32
0.9773,0.0227	-2997.73
0.9838,0.0162	-2988.69
0.9874,0.0126	-3005.44
0.9687,0.0313	-3009.66
0.9764,0.0236	-3012.77
0.9956,0.0044	-2992.80
0.9738,0.0262	-3009.19
0.9821,0.0179	-3009.09
0.9867,0.0133	-2996.73
0.9740,0.0260	-3005.55
0.9783,0.0217	-3001.39
0.9964,0.0036	-2976.27
0.9676,0.0324	-3003.00
0.9792,0.0208	-2989.73
0.9859,0.0141	-2988.26
0.9733,0.0267	-3005.63
0.9770,0.0230	-2986.52
0.9957,0.0043	-2998.26
0.9651,0.0349	-3013.44
0.9786,0.0214	-3031.93
0.9867,0.0133	-2992.42
0.9743,0.0257	-3001.89
0.9780,0.0220	-3009.01
0.9947,0.0053	-2976.82
0.9656,0.0344	-3030.05
0.9813,0.0187	-3005.09
0.9880,0.0120	-2996.71
0.9779,0.0221	-3009.01
0.9788,0.0212	-2986.00
0.9945,0.0055	-2992.49
0.9678,0.0322	-2999.55
0.9771,0.0229	-3012.78
0.9895,0.0105	-3005.84
0.9786,0.0214	-3012.82
0.9801,0.0199	-2997.31
0.9940,0.0060	-2987.28
0.9752,0.0248	-3005.43
0.9748,0.0252	-3001.81
0.9889,0.0111	-2996.72
0.9794,0.0206	-3009.00
0.9826,0.0174	-2997.02
0.9935,0.0065	-2982.26
0.9829,0.0171	-3001.04
0.9742,0.0258	-3012.79
0.9881,0.0119	-2992.29
0.9736,0.0264	-2994.76
0.9835,0.0165	-2996.94
0.9929,0.0071	-2977.42
0.9861,0.0139	-3018.07
0.9731,0.0269	-3023.59
0.9871,0.0129	-2983.70
0.9666,0.0334	-3030.11
0.9866,0.0134	-2996.73
0.9926,0.0074	-2992.22
0.9862,0.0138	-2996.75
0.9727,0.0273	-3009.27
0.9814,0.0186	-3024.92
0.9664,0.0336	-2999.85
0.9837,0.0163	-3013.32
0.9925,0.0075	-2982.44
0.9831,0.0169	-2996.96
0.9648,0.0352	-3003.53
0.9829,0.0171	-3001.04
0.9704,0.0296	-3016.46
0.9863,0.0137	-2988.18
0.9924,0.0076	-2992.21
0.9782,0.0218	-2993.79
0.9718,0.0282	-2998.73
0.9855,0.0145	-3001.00
0.9745,0.0255	-3009.14
0.9857,0.0143	-2984.08
0.9925,0.0075	-2982.44
0.9819,0.0181	-3001.09
0.9670,0.0330	-3013.24
0.9859,0.0141	-2992.51
0.9715,0.0285	-2998.78
0.9824,0.0176	-2997.04
0.9926,0.0074	-2982.42
0.9798,0.0202	-3005.12
0.9698,0.0302	-3006.07
0.9869,0.0131	-2988.08
0.9730,0.0270	-3023.58
0.9802,0.0198	-2993.41
0.9924,0.0076	-2977.58
0.9810,0.0190	-3009.04
0.9687,0.0313	-3030.25
0.9851,0.0149	-2984.23
0.9724,0.0276	-3009.29
0.9819,0.0181	-2997.10
0.9936,0.0064	-2982.24
0.9850,0.0150	-2996.81
0.9716,0.0284	-2998.77
0.9848,0.0152	-2992.65
0.9604,0.0396	-3020.40
0.9835,0.0165	-2980.57
0.9924,0.0076	-2982.47
0.9856,0.0144	-2992.55
0.9734,0.0266	-3005.62
0.9842,0.0158	-2984.49
0.9634,0.0366	-3020.17
0.9832,0.0168	-3001.03
0.9920,0.0080	-3006.64
0.9801,0.0199	-2993.42
0.9711,0.0289	-3012.93
0.9825,0.0175	-2997.03
0.9643,0.0357	-3020.12
0.9892,0.0108	-2983.17
0.9903,0.0097	-2987.55
0.9803,0.0197	-2993.38
0.9690,0.0310	-3016.51
0.9797,0.0203	-2989.61
0.9667,0.0333	-3020.01
0.9891,0.0109	-3005.74
0.9899,0.0101	-2996.77
0.9872,0.0128	-2992.37
0.9692,0.0308	-3019.95
0.9765,0.0235	-3016.50
0.9676,0.0324	-2996.20
0.9866,0.0134	-3001.03
0.9917,0.0083	-2982.61
0.9854,0.0146	-2996.79
0.9731,0.0269	-3005.65
0.9758,0.0242	-3001.68
0.9680,0.0320	-3013.15
0.9866,0.0134	-2988.13
0.9932,0.0068	-2982.31
0.9893,0.0107	-3001.26
0.9729,0.0271	-3009.26
0.9720,0.0280	-3023.52
0.9676,0.0324	-3013.19
0.9867,0.0133	-2988.11
0.9930,0.0070	-2987.30
0.9902,0.0098	-2982.93
0.9736,0.0264	-3005.59
0.9769,0.0231	-2982.83
0.9652,0.0348	-3003.46
0.9888,0.0112	-2983.27
0.9924,0.0076	-2987.33
0.9903,0.0097	-2982.91
0.9706,0.0294	-2998.96
0.9756,0.0244	-3005.39
0.9647,0.0353	-3020.09
0.9865,0.0135	-2983.85
0.9929,0.0071	-2987.31
0.9900,0.0100	-2987.59
0.9699,0.0301	-3023.42
0.9743,0.0257	-2998.25
0.9669,0.0331	-3020.00
0.9846,0.0154	-2984.36
0.9947,0.0053	-2982.06
0.9909,0.0091	-2978.09
0.9732,0.0268	-3005.64
0.9747,0.0253	-3009.13
0.9703,0.0297	-3006.00
0.9837,0.0163	-2992.82
0.9957,0.0043	-2976.50
0.9902,0.0098	-2992.17
0.9766,0.0234	-3016.50
0.9723,0.0277	-2998.63
0.9604,0.0396	-3033.15
0.9795,0.0205	-3012.87
0.9953,0.0047	-2976.62
0.9903,0.0097	-2987.54
0.9723,0.0277	-3009.30
0.9768,0.0232	-3012.77
0.9564,0.0436	-3011.52
0.9797,0.0203	-2997.37
0.9958,0.0042	-2976.47
0.9916,0.0084	-2977.86
0.9732,0.0268	-3016.41
0.9748,0.0252	-3001.81
0.9472,0.0528	-3056.68
0.9817,0.0183	-2989.15
0.9957,0.0043	-2987.39
0.9927,0.0073	-2982.40
0.9709,0.0291	-3016.44
0.9775,0.0225	-3005.25
0.9509,0.0491	-3027.42
0.9848,0.0152	-2996.83
0.9964,0.0036	-2981.88
0.9929,0.0071	-2977.44
0.9727,0.0273	-2994.98
0.9820,0.0180	-2985.09
0.9550,0.0450	-3014.85
0.9867,0.0133	-2988.12
0.9970,0.0030	-2976.06
0.9911,0.0089	-2982.75
0.9782,0.0218	-3028.02
0.9838,0.0162	-2996.91
0.9602,0.0398	-3042.70
0.9879,0.0121	-2983.51
0.9970,0.0030	-2987.69
0.9895,0.0105	-2987.65
0.9780,0.0220	-2993.83
0.9837,0.0163	-2996.92
0.9579,0.0421	-3020.64
0.9922,0.0078	-2987.35
0.9975,0.0025	-2975.91
0.9892,0.0108	-2983.18
0.9745,0.0255	-2998.21
0.9869,0.0131	-2988.07
0.9644,0.0356	-3020.11
0.9913,0.0087	-2977.96
0.9976,0.0024	-2981.90
0.9896,0.0104	-2992.19
0.9746,0.0254	-3016.43
0.9844,0.0156	-2980.26
0.9692,0.0308	-3019.95
0.9905,0.0095	-2987.52
0.9973,0.0027	-2981.87
0.9882,0.0118	-2992.28
0.9781,0.0219	-3005.20
0.9864,0.0136	-2983.89
0.9716,0.0284	-3019.96
0.9897,0.0103	-2987.62
0.9971,0.0029	-2976.01
0.9884,0.0116	-2992.27
0.9765,0.0235	-2997.86
0.9843,0.0157	-3001.00
0.9692,0.0308	-3030.30
0.9884,0.0116	-2987.83
0.9977,0.0023	-2981.90
0.9859,0.0141	-2984.01
0.9719,0.0281	-3009.34
0.9835,0.0165	-2980.59
0.9699,0.0301	-3023.42
0.9888,0.0112	-2983.29
0.9975,0.0025	-2975.90
0.9837,0.0163	-3001.01
0.9741,0.0259	-2994.66
0.9833,0.0167	-2988.80
0.9694,0.0306	-3009.58
0.9873,0.0127	-2983.65
0.9975,0.0025	-2981.89
0.9855,0.0145	-2979.92
0.9753,0.0247	-3016.45
0.9781,0.0219	-3005.21
0.9791,0.0209	-3012.85
0.9834,0.0166	-2992.85
0.9977,0.0023	-2975.83
0.9842,0.0158	-2980.35
0.9734,0.0266	-3005.62
0.9795,0.0205	-2993.53
0.9802,0.0198	-3009.01
0.9806,0.0194	-3001.17
0.9975,0.0025	-2975.90
0.9839,0.0161	-3009.23
0.9745,0.0255	-3005.50
0.9799,0.0201	-2997.35
0.9806,0.0194	-2993.33
0.9791,0.0209	-3001.31
0.9971,0.0029	-2993.55
0.9843,0.0157	-2992.72
0.9766,0.0234	-3009.04
0.9802,0.0198	-3009.01
0.9834,0.0166	-2996.94
0.9820,0.0180	-2993.08
0.9974,0.0026	-2987.81
0.9855,0.0145	-2992.57
0.9784,0.0216	-2989.93
0.9778,0.0222	-2997.65
0.9805,0.0195	-3005.10
0.9834,0.0166	-3001.02
0.9972,0.0028	-2975.99
0.9863,0.0137	-3001.02
0.9799,0.0201	-2997.35
0.9784,0.0216	-3009.00
0.9792,0.0208	-2985.89
0.9880,0.0120	-2987.89
0.9975,0.0025	-2981.89
0.9853,0.0147	-3005.20
0.9811,0.0189	-2993.24
0.9776,0.0224	-3005.24
0.9815,0.0185	-2993.17
0.9866,0.0134	-2988.13
0.9972,0.0028	-2975.99
0.9856,0.0144	-3005.23
0.9873,0.0127	-2996.71
0.9763,0.0237	-3012.77
0.9843,0.0157	-2996.86
0.9877,0.0123	-2996.71
0.9963,0.0037	-2987.48
0.9850,0.0150	-3005.18
0.9882,0.0118	-2987.85
0.9801,0.0199	-2993.42
0.9847,0.0153	-2996.83
0.9882,0.0118	-2983.42
0.9953,0.0047	-2976.63
0.9832,0.0168	-3001.03
0.9905,0.0095	-2987.52
0.9792,0.0208	-3009.00
0.9838,0.0162	-3001.01
0.9884,0.0116	-2983.38
0.9956,0.0044	-2987.37
0.9855,0.0145	-2984.13
0.9901,0.0099	-2987.57
0.9790,0.0210	-2993.63
0.9847,0.0153	-3005.16
0.9888,0.0112	-2992.24
0.9958,0.0042	-2992.86
0.9847,0.0153	-3005.16
0.9904,0.0096	-2978.25
0.9806,0.0194	-3016.86
0.9855,0.0145	-2992.56
0.9898,0.0102	-2983.03
0.9950,0.0050	-2982.01
0.9860,0.0140	-2992.50
0.9898,0.0102	-2987.61
0.9765,0.0235	-3023.96
0.9829,0.0171	-2996.98
0.9894,0.0106	-2987.67
0.9964,0.0036	-2976.25
0.9851,0.0149	-3005.19
0.9919,0.0081	-2996.99
0.9772,0.0228	-3016.54
0.9865,0.0135	-2988.14
0.9884,0.0116	-2987.82
0.9954,0.0046	-2987.35
0.9881,0.0119	-3001.13
0.9937,0.0063	-2987.28
0.9794,0.0206	-2993.55
0.9874,0.0126	-2996.71
0.9875,0.0125	-2983.60
0.9956,0.0044	-2981.95
0.9903,0.0097	-2982.91
0.9925,0.0075	-2987.33
0.9810,0.0190	-3001.15
0.9874,0.0126	-3001.07
0.9867,0.0133	-3001.03
0.9962,0.0038	-2981.89
0.9916,0.0084	-2987.41
0.9914,0.0086	-2982.68
0.9795,0.0205	-3005.13
0.9850,0.0150	-2984.26
0.9879,0.0121	-2983.51
0.9967,0.0033	-2981.87
0.9902,0.0098	-2982.94
0.9924,0.0076	-2992.21
0.9726,0.0274	-3019.98
0.9840,0.0160	-2988.66
0.9889,0.0111	-2978.75
0.9965,0.0035	-2981.88
0.9876,0.0124	-2987.96
0.9924,0.0076	-2977.61
0.9724,0.0276	-3019.98
0.9832,0.0168	-3013.23
0.9870,0.0130	-2979.40
0.9958,0.0042	-2976.47
0.9863,0.0137	-2983.90
0.9924,0.0076	-2982.46
0.9687,0.0313	-2999.35
0.9826,0.0174	-2997.01
0.9864,0.0136	-2988.16
0.9945,0.0055	-2982.10
0.9872,0.0128	-3005.40
0.9932,0.0068	-2992.27
0.9633,0.0367	-3010.37
0.9850,0.0150	-2988.44
0.9886,0.0114	-2983.32
0.9951,0.0049	-2992.63
0.9870,0.0130	-2996.72
0.9919,0.0081	-2992.18
0.9693,0.0307	-3009.59
0.9866,0.0134	-2992.43
0.9882,0.0118	-3001.13
0.9955,0.0045	-2981.95
0.9852,0.0148	-2992.61
0.9919,0.0081	-2987.37
0.9671,0.0329	-3003.09
0.9871,0.0129	-2992.38
0.9881,0.0119	-2987.87
0.9959,0.0041	-2981.92
0.9842,0.0158	-2988.60
0.9923,0.0077	-3001.91
0.9735,0.0265	-3020.02
0.9873,0.0127	-2983.65
0.9893,0.0107	-2992.21
0.9952,0.0048	-2987.32
0.9861,0.0139	-2992.49
0.9922,0.0078	-2992.19
0.9738,0.0262	-3012.80
0.9872,0.0128	-2992.37
0.9876,0.0124	-2992.33
0.9956,0.0044	-2987.37
0.9866,0.0134	-2996.73
0.9915,0.0085	-2982.65
0.9762,0.0238	-2986.78
0.9869,0.0131	-2996.72
0.9850,0.0150	-2996.81
0.9955,0.0045	-2987.35
0.9879,0.0121	-2992.30
0.9917,0.0083	-3001.74
0.9736,0.0264	-2998.37
0.9892,0.0108	-2992.22
0.9827,0.0173	-2997.01
0.9961,0.0039	-2993.00
0.9871,0.0129	-3001.05
0.9926,0.0074	-2997.12
0.9744,0.0256	-3020.07
0.9906,0.0094	-2978.18
0.9811,0.0189	-3009.04
0.9958,0.0042	-2981.93
0.9877,0.0123	-3009.88
0.9934,0.0066	-2982.27
0.9727,0.0273	-3005.70
0.9881,0.0119	-2992.29
0.9805,0.0195	-2993.34
0.9951,0.0049	-2992.63
0.9884,0.0116	-2987.82
0.9931,0.0069	-2977.37
0.9800,0.0200	-3020.69
0.9874,0.0126	-2992.35
0.9752,0.0248	-3009.10
0.9949,0.0051	-2982.03
0.9893,0.0107	-3010.32
0.9933,0.0067	-2977.28
0.9783,0.0217	-3005.20
0.9882,0.0118	-2987.86
0.9812,0.0188	-3001.13
0.9953,0.0047	-2992.68
0.9918,0.0082	-2987.38
0.9936,0.0064	-2977.18
0.9809,0.0191	-2997.21
0.9874,0.0126	-2992.35
0.9826,0.0174	-2984.90
0.9956,0.0044	-2981.95
0.9932,0.0068	-2982.31
0.9935,0.0065	-2997.35
0.9819,0.0181	-3009.07
0.9837,0.0163	-2996.91
0.9836,0.0164	-2992.83
0.9945,0.0055	-2992.48
0.9935,0.0065	-2982.25
0.9928,0.0072	-2992.24
0.9797,0.0203	-3001.25
0.9846,0.0154	-2988.53
0.9794,0.0206	-2997.42
0.9955,0.0045	-2976.55
0.9939,0.0061	-2987.28
0.9910,0.0090	-2982.76
0.9756,0.0244	-3012.77
0.9837,0.0163	-2992.82
0.9756,0.0244	-3005.40
0.9961,0.0039	-2992.97
0.9942,0.0058	-2982.14
0.9919,0.0081	-2982.56
0.9760,0.0240	-3009.06
0.9829,0.0171	-2984.85
0.9755,0.0245	-3009.09
0.9964,0.0036	-2976.27
0.9938,0.0062	-2992.35
0.9922,0.0078	-2992.20
0.9742,0.0258	-3023.69
0.9842,0.0158	-2992.74
0.9787,0.0213	-3005.17
0.9957,0.0043	-2992.84
0.9922,0.0078	-2982.50
0.9920,0.0080	-2992.19
0.9720,0.0280	-3002.23
0.9823,0.0177	-2997.05
0.9768,0.0232	-2997.81
