#isoforms=['ENSG00000101294.SE.1.A.up_ENSG00000101294.SE.1.A.SE1_ENSG00000101294.SE.1.A.dn','ENSG00000101294.SE.1.B.up_ENSG00000101294.SE.1.B.dn']	exon_lens=('ENSG00000101294.SE.1.A.up',99),('ENSG00000101294.SE.1.A.SE1',376),('ENSG00000101294.SE.1.A.dn',89),('ENSG00000101294.SE.1.B.up',99),('ENSG00000101294.SE.1.B.dn',89)	iters=5000	burn_in=500	lag=10	percent_accept=96.17	proposal_type=drift	counts=(0,0):734,(1,0):290,(1,1):72	assigned_counts=0:357,1:5	chrom=chr20	strand=+	mRNA_starts=31527484,31527484	mRNA_ends=31545035,31545035
sampled_psi	log_score
0.9014,0.0986	-2283.44
0.9581,0.0419	-2273.30
0.9604,0.0396	-2263.67
0.9158,0.0842	-2278.06
0.8851,0.1149	-2286.38
0.9508,0.0492	-2267.64
0.9280,0.0720	-2274.82
0.9578,0.0422	-2279.55
0.9685,0.0315	-2273.11
0.9189,0.0811	-2277.87
0.8901,0.1099	-2300.77
0.9501,0.0499	-2267.70
0.9203,0.0797	-2272.90
0.9567,0.0433	-2267.16
0.9642,0.0358	-2263.27
0.9189,0.0811	-2282.73
0.8892,0.1108	-2284.09
0.9422,0.0578	-2273.97
0.9027,0.0973	-2287.83
0.9546,0.0454	-2270.37
0.9660,0.0340	-2273.13
0.9255,0.0745	-2282.54
0.8976,0.1024	-2281.46
0.9525,0.0475	-2282.49
0.9137,0.0863	-2287.63
0.9565,0.0435	-2279.53
0.9675,0.0325	-2273.12
0.9281,0.0719	-2272.25
0.8846,0.1154	-2286.40
0.9478,0.0522	-2273.69
0.9307,0.0693	-2277.24
0.9586,0.0414	-2267.00
0.9741,0.0259	-2269.51
0.9322,0.0678	-2279.79
0.9052,0.0948	-2294.54
0.9372,0.0628	-2274.25
0.9282,0.0718	-2272.24
0.9475,0.0525	-2276.60
0.9736,0.0264	-2269.53
0.9271,0.0729	-2279.96
0.9140,0.0860	-2275.81
0.9407,0.0593	-2282.34
0.9435,0.0565	-2279.54
0.9456,0.0544	-2276.65
0.9744,0.0256	-2273.15
0.9194,0.0806	-2277.85
0.9092,0.0908	-2271.57
0.9439,0.0561	-2276.71
0.9389,0.0611	-2274.15
0.9386,0.0614	-2279.62
0.9777,0.0223	-2265.68
0.9382,0.0618	-2279.63
0.9173,0.0827	-2285.19
0.9507,0.0493	-2267.65
0.9467,0.0533	-2282.38
0.9428,0.0572	-2271.14
0.9817,0.0183	-2269.46
0.9538,0.0462	-2279.50
0.9250,0.0750	-2275.02
0.9425,0.0575	-2273.96
0.9391,0.0609	-2265.93
0.9350,0.0650	-2290.37
0.9863,0.0137	-2265.31
0.9535,0.0465	-2270.43
0.9220,0.0780	-2287.57
0.9463,0.0537	-2268.03
0.9433,0.0567	-2271.10
0.9333,0.0667	-2295.59
0.9881,0.0119	-2269.69
0.9489,0.0511	-2282.41
0.9257,0.0743	-2285.06
0.9529,0.0471	-2270.47
0.9474,0.0526	-2270.82
0.9208,0.0792	-2287.58
0.9901,0.0099	-2265.26
0.9437,0.0563	-2276.71
0.9323,0.0677	-2285.03
0.9346,0.0654	-2274.40
0.9443,0.0557	-2276.69
0.9146,0.0854	-2294.73
0.9897,0.0103	-2260.70
0.9399,0.0601	-2271.35
0.9374,0.0626	-2287.77
0.9573,0.0427	-2273.32
0.9395,0.0605	-2274.12
0.9237,0.0763	-2270.12
0.9869,0.0131	-2269.62
0.9464,0.0536	-2279.50
0.9384,0.0616	-2271.46
0.9530,0.0470	-2279.49
0.9402,0.0598	-2279.59
0.9233,0.0767	-2282.60
0.9902,0.0098	-2260.64
0.9600,0.0400	-2270.07
0.9471,0.0529	-2279.50
0.9452,0.0548	-2282.36
0.9442,0.0558	-2279.53
0.9158,0.0842	-2282.83
0.9913,0.0087	-2260.54
0.9581,0.0419	-2279.56
0.9461,0.0539	-2273.78
0.9317,0.0683	-2279.81
0.9502,0.0498	-2276.54
0.9058,0.0942	-2283.23
0.9907,0.0093	-2260.59
0.9597,0.0403	-2276.42
0.9496,0.0504	-2273.62
0.9278,0.0722	-2277.38
0.9536,0.0464	-2285.54
0.9197,0.0803	-2282.70
0.9921,0.0079	-2260.46
0.9636,0.0364	-2279.72
0.9527,0.0473	-2276.49
0.9339,0.0661	-2279.74
0.9502,0.0498	-2279.49
0.9374,0.0626	-2279.65
0.9937,0.0063	-2265.36
0.9629,0.0371	-2266.66
0.9443,0.0557	-2273.86
0.9303,0.0697	-2277.26
0.9483,0.0517	-2270.77
0.9312,0.0688	-2282.43
0.9929,0.0071	-2260.38
0.9639,0.0361	-2269.87
0.9401,0.0599	-2276.84
0.9361,0.0639	-2271.63
0.9421,0.0579	-2276.77
0.9405,0.0595	-2279.58
0.9935,0.0065	-2260.32
0.9693,0.0307	-2266.20
0.9444,0.0556	-2273.86
0.9268,0.0732	-2279.97
0.9210,0.0790	-2275.29
0.9450,0.0550	-2270.99
0.9942,0.0058	-2260.26
0.9592,0.0408	-2270.11
0.9536,0.0464	-2270.43
0.9381,0.0619	-2274.20
0.9243,0.0757	-2285.07
0.9414,0.0586	-2271.24
0.9951,0.0049	-2260.17
0.9481,0.0519	-2270.78
0.9593,0.0407	-2266.95
0.9424,0.0576	-2279.55
0.9197,0.0803	-2270.51
0.9377,0.0623	-2271.51
0.9927,0.0073	-2260.40
0.9527,0.0473	-2267.48
0.9647,0.0353	-2266.53
0.9458,0.0542	-2270.93
0.9090,0.0910	-2290.00
0.9299,0.0701	-2279.86
0.9907,0.0093	-2260.59
0.9549,0.0451	-2276.46
0.9555,0.0445	-2279.52
0.9441,0.0559	-2279.53
0.8976,0.1024	-2301.00
0.9344,0.0656	-2279.73
0.9903,0.0097	-2269.89
0.9590,0.0410	-2266.97
0.9572,0.0428	-2288.86
0.9532,0.0468	-2273.47
0.9168,0.0832	-2290.00
0.9309,0.0691	-2282.43
0.9915,0.0085	-2265.28
0.9573,0.0427	-2276.43
0.9576,0.0424	-2267.08
0.9507,0.0493	-2282.45
0.9152,0.0848	-2282.85
0.9134,0.0866	-2282.92
0.9933,0.0067	-2265.34
0.9608,0.0392	-2270.03
0.9520,0.0480	-2273.51
0.9538,0.0462	-2270.42
0.9115,0.0885	-2280.66
0.8858,0.1142	-2282.24
0.9935,0.0065	-2265.35
0.9572,0.0428	-2270.22
0.9571,0.0429	-2279.54
0.9530,0.0470	-2279.49
0.9182,0.0818	-2273.07
0.8611,0.1389	-2300.57
0.9941,0.0059	-2260.26
0.9528,0.0472	-2264.47
0.9645,0.0355	-2269.85
0.9433,0.0567	-2271.10
0.9326,0.0674	-2285.03
0.8709,0.1291	-2283.36
0.9926,0.0074	-2265.31
0.9522,0.0478	-2273.51
0.9602,0.0398	-2270.06
0.9427,0.0573	-2271.15
0.9358,0.0642	-2277.01
0.8653,0.1347	-2302.41
0.9929,0.0071	-2270.26
0.9620,0.0380	-2263.51
0.9596,0.0404	-2266.92
0.9392,0.0608	-2276.87
0.9351,0.0649	-2282.38
0.8581,0.1419	-2282.61
0.9936,0.0064	-2260.31
0.9657,0.0343	-2273.13
0.9581,0.0419	-2267.04
0.9546,0.0454	-2279.51
0.9439,0.0561	-2282.35
0.8646,0.1354	-2289.43
0.9951,0.0049	-2260.16
0.9562,0.0438	-2270.28
0.9543,0.0457	-2276.47
0.9557,0.0443	-2264.16
0.9556,0.0444	-2279.52
0.8866,0.1134	-2290.41
0.9946,0.0054	-2260.21
0.9598,0.0402	-2270.08
0.9550,0.0450	-2279.51
0.9507,0.0493	-2282.44
0.9642,0.0358	-2283.04
0.8715,0.1285	-2298.62
0.9958,0.0042	-2260.10
0.9540,0.0460	-2267.37
0.9627,0.0373	-2266.68
0.9534,0.0466	-2264.40
0.9709,0.0291	-2262.58
0.8806,0.1194	-2288.61
0.9948,0.0052	-2260.19
0.9496,0.0504	-2282.42
0.9540,0.0460	-2267.38
0.9583,0.0417	-2270.16
0.9719,0.0281	-2269.57
0.8935,0.1065	-2283.85
0.9949,0.0051	-2260.18
0.9431,0.0569	-2271.12
0.9488,0.0512	-2273.65
0.9498,0.0502	-2270.67
0.9704,0.0296	-2262.63
0.8995,0.1005	-2294.49
0.9956,0.0044	-2260.11
0.9347,0.0653	-2269.07
0.9421,0.0579	-2282.35
0.9445,0.0555	-2282.36
0.9680,0.0320	-2266.29
0.8917,0.1083	-2288.17
0.9959,0.0041	-2260.09
0.9316,0.0684	-2282.42
0.9422,0.0578	-2282.35
0.9350,0.0650	-2282.38
0.9750,0.0250	-2269.50
0.8798,0.1202	-2290.64
0.9954,0.0046	-2260.13
0.9149,0.0851	-2294.74
0.9439,0.0561	-2276.71
0.9298,0.0702	-2272.11
0.9776,0.0224	-2269.46
0.9011,0.0989	-2290.08
0.9957,0.0043	-2265.55
0.9093,0.0907	-2290.00
0.9430,0.0570	-2268.31
0.9428,0.0572	-2273.94
0.9838,0.0162	-2261.29
0.9236,0.0764	-2290.07
0.9954,0.0046	-2260.13
0.8961,0.1039	-2279.40
0.9381,0.0619	-2279.63
0.9550,0.0450	-2276.46
0.9848,0.0152	-2265.35
0.9232,0.0768	-2287.57
0.9953,0.0047	-2265.50
0.9011,0.0989	-2287.87
0.9352,0.0648	-2282.37
0.9575,0.0425	-2270.21
0.9849,0.0151	-2265.35
0.9299,0.0701	-2277.28
0.9949,0.0051	-2260.18
0.9066,0.0934	-2285.47
0.9357,0.0643	-2279.69
0.9619,0.0381	-2276.43
0.9817,0.0183	-2261.50
0.9330,0.0670	-2277.13
0.9955,0.0045	-2260.12
0.9166,0.0834	-2282.80
0.9272,0.0728	-2282.50
0.9587,0.0413	-2273.28
0.9782,0.0218	-2261.85
0.9169,0.0831	-2292.40
0.9951,0.0049	-2260.17
0.9230,0.0770	-2280.12
0.9328,0.0672	-2277.14
0.9528,0.0472	-2264.47
0.9756,0.0244	-2276.86
0.9262,0.0738	-2277.46
0.9950,0.0050	-2270.76
0.9015,0.0985	-2272.37
0.9313,0.0687	-2272.00
0.9511,0.0489	-2282.45
0.9776,0.0224	-2273.23
0.9206,0.0794	-2280.22
0.9950,0.0050	-2260.17
0.9078,0.0922	-2296.87
0.9215,0.0785	-2280.19
0.9510,0.0490	-2273.55
0.9737,0.0263	-2269.52
0.9070,0.0930	-2294.57
0.9950,0.0050	-2265.47
0.9234,0.0766	-2285.08
0.9050,0.0950	-2283.27
0.9491,0.0509	-2270.71
0.9744,0.0256	-2265.87
0.9137,0.0863	-2280.55
0.9952,0.0048	-2260.15
0.9169,0.0831	-2280.39
0.8736,0.1264	-2298.61
0.9459,0.0541	-2273.78
0.9721,0.0279	-2266.01
0.9342,0.0658	-2277.08
0.9950,0.0050	-2265.47
0.9235,0.0765	-2267.64
0.8612,0.1388	-2295.10
0.9488,0.0512	-2288.25
0.9779,0.0221	-2284.61
0.9228,0.0772	-2280.13
0.9959,0.0041	-2260.09
0.9189,0.0811	-2273.02
0.8402,0.1598	-2302.61
0.9417,0.0583	-2276.78
0.9782,0.0218	-2273.26
0.9345,0.0655	-2274.41
0.9969,0.0031	-2259.99
0.9324,0.0676	-2285.03
0.8630,0.1370	-2295.04
0.9441,0.0559	-2279.53
0.9799,0.0201	-2261.68
0.9339,0.0661	-2277.09
0.9968,0.0032	-2260.00
0.9265,0.0735	-2277.45
0.8214,0.1786	-2292.43
0.9425,0.0575	-2282.35
0.9829,0.0171	-2269.47
0.9303,0.0697	-2287.62
0.9969,0.0031	-2259.99
0.9479,0.0521	-2276.59
0.8274,0.1726	-2309.19
0.9352,0.0648	-2285.04
0.9835,0.0165	-2265.40
0.9370,0.0630	-2282.36
0.9968,0.0032	-2271.46
0.9382,0.0618	-2274.19
0.7927,0.2073	-2300.35
0.9412,0.0588	-2271.25
0.9827,0.0173	-2261.39
0.9483,0.0517	-2267.85
0.9960,0.0040	-2260.07
0.9365,0.0635	-2282.36
0.8035,0.1965	-2303.83
0.9515,0.0485	-2276.51
0.9844,0.0156	-2273.65
0.9414,0.0586	-2285.12
0.9955,0.0045	-2260.12
0.9358,0.0642	-2279.69
0.8010,0.1990	-2303.95
0.9534,0.0466	-2270.44
0.9855,0.0145	-2265.33
0.9542,0.0458	-2285.57
0.9959,0.0041	-2260.09
0.9468,0.0532	-2270.86
0.8044,0.1956	-2300.96
0.9448,0.0552	-2276.68
0.9839,0.0161	-2265.39
0.9580,0.0420	-2270.18
0.9961,0.0039	-2265.61
0.9500,0.0500	-2270.66
0.8369,0.1631	-2296.14
0.9543,0.0457	-2276.46
0.9847,0.0153	-2261.20
0.9526,0.0474	-2273.49
0.9955,0.0045	-2260.13
0.9459,0.0541	-2270.92
0.8360,0.1640	-2297.81
0.9489,0.0511	-2273.64
0.9846,0.0154	-2273.67
0.9462,0.0538	-2276.64
0.9960,0.0040	-2265.59
0.9253,0.0747	-2290.10
0.8259,0.1741	-2299.85
0.9439,0.0561	-2285.18
0.9872,0.0128	-2269.63
0.9503,0.0497	-2267.68
0.9962,0.0038	-2271.19
0.9242,0.0758	-2280.08
0.8527,0.1473	-2293.66
0.9342,0.0658	-2287.69
0.9857,0.0143	-2265.32
0.9584,0.0416	-2273.29
0.9968,0.0032	-2271.50
0.9295,0.0705	-2274.72
0.8601,0.1399	-2300.58
0.9355,0.0645	-2271.67
0.9876,0.0124	-2269.66
0.9566,0.0434	-2267.16
0.9965,0.0035	-2260.03
0.9396,0.0604	-2279.60
0.8619,0.1381	-2282.26
0.9330,0.0670	-2271.87
0.9879,0.0121	-2269.68
0.9502,0.0498	-2270.64
0.9966,0.0034	-2260.01
0.9417,0.0583	-2268.44
0.8723,0.1277	-2285.17
0.9364,0.0636	-2282.36
0.9888,0.0112	-2260.79
0.9498,0.0502	-2282.43
0.9969,0.0031	-2259.99
0.9296,0.0704	-2279.87
0.8098,0.1902	-2299.21
0.9319,0.0681	-2277.18
0.9868,0.0132	-2269.61
0.9464,0.0536	-2282.37
0.9965,0.0035	-2265.68
0.9384,0.0616	-2295.97
0.8046,0.1954	-2308.02
0.9086,0.0914	-2276.22
0.9850,0.0150	-2265.35
0.9562,0.0438	-2276.44
0.9969,0.0031	-2265.76
0.9361,0.0639	-2279.68
0.7886,0.2114	-2300.64
0.8908,0.1092	-2294.50
0.9823,0.0177	-2265.45
0.9648,0.0352	-2279.77
0.9973,0.0027	-2259.95
0.9402,0.0598	-2282.34
0.8034,0.1966	-2301.02
0.8970,0.1030	-2292.32
0.9876,0.0124	-2265.28
0.9690,0.0310	-2276.55
0.9980,0.0020	-2259.88
0.9319,0.0681	-2277.18
0.8259,0.1741	-2292.07
0.8863,0.1137	-2284.26
0.9868,0.0132	-2260.98
0.9757,0.0243	-2269.48
0.9980,0.0020	-2259.88
0.9225,0.0775	-2282.62
0.8040,0.1960	-2306.63
0.8934,0.1066	-2285.98
0.9888,0.0112	-2265.26
0.9730,0.0270	-2269.54
0.9982,0.0018	-2259.86
0.9412,0.0588	-2276.80
0.8200,0.1800	-2309.22
0.8844,0.1156	-2290.48
0.9898,0.0102	-2260.69
0.9692,0.0308	-2276.56
0.9984,0.0016	-2259.84
0.9339,0.0661	-2290.33
0.8230,0.1770	-2310.74
0.8859,0.1141	-2286.34
0.9909,0.0091	-2260.58
0.9727,0.0273	-2273.12
0.9981,0.0019	-2259.87
0.9454,0.0546	-2270.96
0.8308,0.1692	-2296.46
0.9166,0.0834	-2285.20
0.9921,0.0079	-2260.46
0.9738,0.0262	-2269.52
0.9984,0.0016	-2259.84
0.9467,0.0533	-2285.25
0.8170,0.1830	-2300.28
0.9237,0.0763	-2290.07
0.9912,0.0088	-2260.55
0.9702,0.0298	-2269.62
0.9986,0.0014	-2259.83
0.9463,0.0537	-2276.64
0.8182,0.1818	-2298.71
0.9314,0.0686	-2279.81
0.9897,0.0103	-2265.26
0.9677,0.0323	-2283.31
0.9986,0.0014	-2259.82
0.9357,0.0643	-2279.69
0.8584,0.1416	-2306.01
0.9298,0.0702	-2274.70
0.9901,0.0099	-2265.26
0.9703,0.0297	-2266.13
0.9986,0.0014	-2259.82
0.9260,0.0740	-2274.95
0.8933,0.1067	-2283.86
0.9105,0.0895	-2283.03
0.9891,0.0109	-2260.75
0.9781,0.0219	-2265.65
0.9987,0.0013	-2259.82
0.9242,0.0758	-2277.57
0.9002,0.0998	-2287.90
0.9098,0.0902	-2273.82
0.9897,0.0103	-2260.70
0.9768,0.0232	-2265.73
0.9987,0.0013	-2259.81
0.9321,0.0679	-2277.17
0.9038,0.0962	-2283.33
0.9355,0.0645	-2274.34
0.9884,0.0116	-2260.83
0.9799,0.0201	-2265.56
0.9988,0.0012	-2259.80
0.9415,0.0585	-2274.01
0.9063,0.0937	-2285.48
0.9392,0.0608	-2274.14
0.9904,0.0096	-2260.63
0.9806,0.0194	-2269.45
0.9992,0.0008	-2259.76
0.9509,0.0491	-2273.56
0.9186,0.0814	-2275.47
0.9427,0.0573	-2279.55
0.9929,0.0071	-2260.38
0.9803,0.0197	-2265.54
0.9993,0.0007	-2259.75
0.9447,0.0553	-2276.68
0.9082,0.0918	-2287.71
0.9556,0.0444	-2276.45
0.9930,0.0070	-2260.37
0.9804,0.0196	-2265.54
0.9992,0.0008	-2259.76
0.9381,0.0619	-2282.35
0.9278,0.0722	-2287.60
0.9594,0.0406	-2270.10
0.9943,0.0057	-2260.25
0.9776,0.0224	-2265.68
0.9992,0.0008	-2259.77
0.9360,0.0640	-2277.00
0.9267,0.0733	-2274.90
0.9602,0.0398	-2270.06
0.9937,0.0063	-2260.30
0.9784,0.0216	-2269.45
0.9992,0.0008	-2259.76
0.9407,0.0593	-2271.29
0.9374,0.0626	-2276.94
0.9543,0.0457	-2267.35
0.9916,0.0084	-2265.28
0.9757,0.0243	-2262.10
0.9993,0.0007	-2259.75
0.9417,0.0583	-2279.56
0.9426,0.0574	-2279.55
0.9600,0.0400	-2273.24
0.9916,0.0084	-2265.28
0.9731,0.0269	-2265.95
0.9992,0.0008	-2259.76
0.9330,0.0670	-2279.77
0.9386,0.0614	-2287.80
0.9450,0.0550	-2268.14
0.9935,0.0065	-2260.32
0.9711,0.0289	-2266.08
0.9994,0.0006	-2259.74
0.9370,0.0630	-2279.66
0.9403,0.0597	-2282.34
0.9337,0.0663	-2287.68
0.9919,0.0081	-2265.29
0.9746,0.0254	-2269.50
0.9994,0.0006	-2259.74
0.9168,0.0832	-2294.80
0.9278,0.0722	-2277.38
0.9433,0.0567	-2282.35
0.9933,0.0067	-2260.34
0.9742,0.0258	-2265.88
0.9994,0.0006	-2259.74
0.9103,0.0897	-2289.99
0.9364,0.0636	-2279.67
0.9463,0.0537	-2273.77
0.9931,0.0069	-2260.36
0.9734,0.0266	-2276.73
0.9995,0.0005	-2259.74
0.9054,0.0946	-2278.73
0.9358,0.0642	-2279.69
0.9506,0.0494	-2270.61
0.9918,0.0082	-2270.08
0.9732,0.0268	-2265.94
0.9994,0.0006	-2259.74
0.9044,0.0956	-2287.79
0.9373,0.0627	-2276.95
0.9478,0.0522	-2276.59
0.9920,0.0080	-2270.11
0.9759,0.0241	-2269.48
0.9995,0.0005	-2267.33
0.9085,0.0915	-2278.52
0.9257,0.0743	-2290.11
0.9509,0.0491	-2276.52
0.9901,0.0099	-2265.26
0.9775,0.0225	-2265.68
0.9995,0.0005	-2259.73
0.9198,0.0802	-2277.82
0.9324,0.0676	-2271.91
0.9448,0.0552	-2276.68
0.9908,0.0092	-2265.27
0.9755,0.0245	-2262.11
0.9996,0.0004	-2259.73
0.9246,0.0754	-2277.55
0.9411,0.0589	-2279.57
0.9385,0.0615	-2274.18
0.9924,0.0076	-2260.43
0.9740,0.0260	-2273.14
0.9997,0.0003	-2259.71
0.9320,0.0680	-2287.65
0.9421,0.0579	-2276.77
0.9391,0.0609	-2282.35
0.9935,0.0065	-2270.37
0.9743,0.0257	-2269.51
0.9996,0.0004	-2267.57
0.9254,0.0746	-2272.47
0.9534,0.0466	-2270.44
0.9232,0.0768	-2287.57
0.9922,0.0078	-2260.45
0.9740,0.0260	-2273.14
0.9997,0.0003	-2259.71
0.9138,0.0862	-2282.90
0.9566,0.0434	-2279.53
0.9220,0.0780	-2294.98
0.9908,0.0092	-2260.59
0.9744,0.0256	-2269.51
0.9997,0.0003	-2259.71
0.9120,0.0880	-2282.97
0.9541,0.0459	-2282.54
0.9266,0.0734	-2279.98
0.9906,0.0094	-2265.26
0.9770,0.0230	-2273.21
0.9997,0.0003	-2259.72
0.9145,0.0855	-2282.88
0.9581,0.0419	-2270.17
0.9337,0.0663	-2282.39
0.9921,0.0079	-2265.29
0.9785,0.0215	-2265.63
0.9996,0.0004	-2259.72
0.8973,0.1027	-2292.32
0.9693,0.0307	-2269.65
0.9094,0.0906	-2290.00
0.9927,0.0073	-2260.40
0.9766,0.0234	-2276.93
0.9995,0.0005	-2259.74
0.8992,0.1008	-2283.55
0.9714,0.0286	-2273.11
0.9133,0.0867	-2287.63
0.9903,0.0097	-2269.89
0.9807,0.0193	-2265.52
0.9993,0.0007	-2259.75
0.9032,0.0968	-2290.05
0.9751,0.0249	-2265.83
0.9178,0.0822	-2275.53
0.9911,0.0089	-2260.55
0.9812,0.0188	-2269.45
0.9992,0.0008	-2266.84
0.8920,0.1080	-2283.93
0.9790,0.0210	-2265.60
0.9066,0.0934	-2285.47
0.9897,0.0103	-2265.26
0.9738,0.0262	-2276.75
0.9989,0.0011	-2266.64
0.8900,0.1100	-2281.96
0.9761,0.0239	-2262.06
0.9059,0.0941	-2294.55
0.9875,0.0125	-2260.91
0.9625,0.0375	-2263.45
0.9988,0.0012	-2259.80
0.8928,0.1072	-2286.01
0.9632,0.0368	-2279.70
0.9135,0.0865	-2292.34
0.9860,0.0140	-2278.09
0.9549,0.0451	-2276.46
0.9988,0.0012	-2259.80
0.9013,0.0987	-2283.45
0.9664,0.0336	-2286.57
0.9105,0.0895	-2283.03
0.9884,0.0116	-2265.27
0.9586,0.0414	-2273.28
0.9985,0.0015	-2259.83
0.9039,0.0961	-2285.56
0.9659,0.0341	-2269.79
0.8945,0.1055	-2281.66
0.9896,0.0104	-2265.26
0.9604,0.0396	-2276.42
0.9983,0.0017	-2259.85
0.9031,0.0969	-2292.29
0.9642,0.0358	-2269.86
0.8875,0.1125	-2298.65
0.9891,0.0109	-2269.77
0.9644,0.0356	-2266.55
0.9983,0.0017	-2259.85
0.9227,0.0773	-2285.09
0.9582,0.0418	-2279.56
0.8883,0.1117	-2284.15
0.9833,0.0167	-2265.41
0.9714,0.0286	-2287.21
0.9983,0.0017	-2259.85
0.9123,0.0877	-2282.96
0.9486,0.0514	-2279.49
0.9047,0.0953	-2287.78
0.9832,0.0168	-2261.34
0.9658,0.0342	-2273.13
0.9983,0.0017	-2259.85
0.9264,0.0736	-2282.52
0.9529,0.0471	-2270.47
0.9044,0.0956	-2294.53
0.9847,0.0153	-2265.35
0.9654,0.0346	-2269.81
0.9979,0.0021	-2259.89
0.9166,0.0834	-2285.20
0.9531,0.0469	-2282.51
0.9009,0.0991	-2290.09
0.9865,0.0135	-2273.89
0.9674,0.0326	-2262.95
0.9980,0.0020	-2259.88
0.9126,0.0874	-2289.99
0.9546,0.0454	-2273.42
0.9120,0.0880	-2280.64
0.9867,0.0133	-2265.30
0.9687,0.0313	-2269.68
0.9980,0.0020	-2272.29
0.9101,0.0899	-2287.68
0.9590,0.0410	-2273.27
0.9183,0.0817	-2285.17
0.9843,0.0157	-2265.37
0.9653,0.0347	-2269.81
0.9979,0.0021	-2259.89
0.8971,0.1029	-2285.82
0.9626,0.0374	-2266.69
0.9256,0.0744	-2297.67
0.9865,0.0135	-2269.60
0.9704,0.0296	-2266.13
0.9980,0.0020	-2259.88
0.8934,0.1066	-2285.98
0.9546,0.0454	-2270.37
0.9248,0.0752	-2280.05
0.9873,0.0127	-2265.29
0.9751,0.0249	-2265.82
0.9975,0.0025	-2259.93
0.9003,0.0997	-2283.50
0.9520,0.0480	-2267.54
0.9315,0.0685	-2285.03
0.9889,0.0111	-2260.77
0.9749,0.0251	-2269.50
0.9974,0.0026	-2259.94
0.9029,0.0971	-2281.14
0.9622,0.0378	-2279.67
0.9503,0.0497	-2276.54
0.9847,0.0153	-2265.36
0.9725,0.0275	-2269.55
0.9975,0.0025	-2259.93
0.8936,0.1064	-2290.23
0.9525,0.0475	-2264.50
0.9481,0.0519	-2282.40
0.9881,0.0119	-2265.27
0.9719,0.0281	-2269.57
0.9967,0.0033	-2260.00
0.9072,0.0928	-2285.45
0.9588,0.0412	-2276.43
0.9572,0.0428	-2273.33
0.9887,0.0113	-2265.27
0.9770,0.0230	-2269.46
0.9968,0.0032	-2259.99
0.8921,0.1079	-2283.93
0.9555,0.0445	-2270.31
0.9533,0.0467	-2285.53
0.9874,0.0126	-2260.93
0.9767,0.0233	-2265.73
0.9974,0.0026	-2259.94
0.9165,0.0835	-2285.20
0.9557,0.0443	-2285.66
0.9479,0.0521	-2270.79
0.9855,0.0145	-2265.33
0.9738,0.0262	-2262.29
0.9974,0.0026	-2259.94
0.9117,0.0883	-2287.65
0.9512,0.0488	-2273.55
0.9511,0.0489	-2270.59
0.9842,0.0158	-2265.38
0.9647,0.0353	-2276.46
0.9977,0.0023	-2259.91
0.9248,0.0752	-2275.03
0.9574,0.0426	-2270.21
0.9637,0.0363	-2269.88
0.9824,0.0176	-2273.49
0.9581,0.0419	-2276.43
0.9977,0.0023	-2259.91
0.9210,0.0790	-2282.66
0.9587,0.0413	-2273.28
0.9636,0.0364	-2266.61
0.9767,0.0233	-2276.94
0.9605,0.0395	-2273.23
0.9978,0.0022	-2259.90
0.9453,0.0547	-2276.66
0.9496,0.0504	-2267.74
0.9590,0.0410	-2279.58
0.9805,0.0195	-2261.61
0.9562,0.0438	-2264.11
0.9980,0.0020	-2259.88
0.9434,0.0566	-2282.35
0.9519,0.0481	-2279.49
0.9516,0.0484	-2273.53
0.9734,0.0266	-2276.73
0.9475,0.0525	-2276.60
0.9977,0.0023	-2259.90
0.9359,0.0641	-2279.69
0.9331,0.0669	-2285.03
0.9462,0.0538	-2282.37
0.9795,0.0205	-2277.18
0.9477,0.0523	-2273.70
0.9977,0.0023	-2259.91
0.9465,0.0535	-2273.75
0.9517,0.0483	-2267.56
0.9446,0.0554	-2285.19
0.9765,0.0235	-2262.02
0.9560,0.0440	-2279.52
0.9976,0.0024	-2259.92
0.9443,0.0557	-2276.70
0.9508,0.0492	-2273.56
0.9546,0.0454	-2267.32
0.9628,0.0372	-2282.94
0.9421,0.0579	-2279.56
0.9976,0.0024	-2259.92
0.9496,0.0504	-2267.74
0.9500,0.0500	-2270.65
0.9582,0.0418	-2279.56
0.9624,0.0376	-2269.95
0.9311,0.0689	-2279.82
0.9976,0.0024	-2259.92
0.9443,0.0557	-2290.85
0.9634,0.0366	-2266.63
0.9633,0.0367	-2273.17
0.9582,0.0418	-2267.03
0.9378,0.0622	-2279.64
0.9975,0.0025	-2259.93
0.9547,0.0453	-2279.51
0.9655,0.0345	-2269.81
0.9581,0.0419	-2273.30
0.9683,0.0317	-2276.53
0.9381,0.0619	-2282.35
0.9969,0.0031	-2259.99
0.9584,0.0416	-2267.02
0.9721,0.0279	-2269.56
0.9588,0.0412	-2263.83
0.9688,0.0312	-2276.54
0.9425,0.0575	-2273.96
0.9974,0.0026	-2259.94
0.9514,0.0486	-2270.56
0.9701,0.0299	-2269.63
0.9589,0.0411	-2266.97
0.9712,0.0288	-2262.55
0.9474,0.0526	-2273.71
0.9974,0.0026	-2259.94
0.9512,0.0488	-2270.58
0.9703,0.0297	-2287.06
