#isoforms=['ENSG00000101294.SE.1.A.up_ENSG00000101294.SE.1.A.SE1_ENSG00000101294.SE.1.A.dn','ENSG00000101294.SE.1.B.up_ENSG00000101294.SE.1.B.dn']	exon_lens=('ENSG00000101294.SE.1.A.up',99),('ENSG00000101294.SE.1.A.SE1',376),('ENSG00000101294.SE.1.A.dn',89),('ENSG00000101294.SE.1.B.up',99),('ENSG00000101294.SE.1.B.dn',89)	iters=5000	burn_in=500	lag=10	percent_accept=86.02	proposal_type=drift	counts=(0,0):481,(1,0):110,(1,1):198	assigned_counts=0:152,1:156	chrom=chr20	strand=+	mRNA_starts=31527484,31527484	mRNA_ends=31545035,31545035
sampled_psi	log_score
0.2343,0.7657	-1956.10
0.2312,0.7688	-1968.12
0.2338,0.7662	-1945.41
0.2279,0.7721	-1948.81
0.2133,0.7867	-1948.78
0.2061,0.7939	-1947.63
0.2280,0.7720	-1947.59
0.2255,0.7745	-1956.17
0.2173,0.7827	-1948.73
0.2278,0.7722	-1954.91
0.2126,0.7874	-1964.50
0.2128,0.7872	-1957.95
0.2105,0.7895	-1942.23
0.2067,0.7933	-1951.64
0.1973,0.8027	-1948.02
0.2407,0.7593	-1963.05
0.2330,0.7670	-1945.37
0.1955,0.8045	-1941.07
0.2366,0.7634	-1958.45
0.2189,0.7811	-1957.63
0.1870,0.8130	-1945.88
0.2428,0.7572	-1951.65
0.1926,0.8074	-1951.21
0.1907,0.8093	-1934.04
0.2531,0.7469	-1946.80
0.1824,0.8176	-1940.30
0.1589,0.8411	-1944.79
0.2188,0.7812	-1958.90
0.1898,0.8102	-1938.41
0.2013,0.7987	-1949.19
0.2170,0.7830	-1952.58
0.1925,0.8075	-1938.31
0.1743,0.8257	-1950.35
0.2373,0.7627	-1949.11
0.2213,0.7787	-1956.27
0.2146,0.7854	-1939.68
0.2016,0.7984	-1954.68
0.1884,0.8116	-1942.85
0.1650,0.8350	-1929.19
0.2364,0.7636	-1959.62
0.2165,0.7835	-1951.31
0.2251,0.7749	-1954.94
0.1902,0.8098	-1952.88
0.1617,0.8383	-1952.54
0.1746,0.8254	-1928.55
0.2377,0.7623	-1954.95
0.2330,0.7670	-1940.61
0.2119,0.7881	-1951.43
0.2082,0.7918	-1948.90
0.1666,0.8334	-1937.11
0.1676,0.8324	-1933.79
0.2372,0.7628	-1956.11
0.2140,0.7860	-1950.07
0.1855,0.8145	-1941.57
0.2244,0.7756	-1958.67
0.1637,0.8363	-1939.09
0.1831,0.8169	-1940.25
0.2304,0.7696	-1953.69
0.2158,0.7842	-1944.87
0.2015,0.7985	-1957.44
0.2499,0.7501	-1960.81
0.2404,0.7596	-1963.06
0.1907,0.8093	-1945.60
0.2020,0.7980	-1945.04
0.2295,0.7705	-1959.74
0.2287,0.7713	-1948.83
0.2318,0.7682	-1951.30
0.2585,0.7415	-1957.86
0.1710,0.8290	-1931.90
0.2254,0.7746	-1936.42
0.1838,0.8162	-1946.16
0.2299,0.7701	-1959.73
0.2207,0.7793	-1934.85
0.2299,0.7701	-1950.06
0.1934,0.8066	-1941.14
0.2288,0.7712	-1957.34
0.1756,0.8244	-1950.15
0.1888,0.8112	-1950.11
0.2126,0.7874	-1950.10
0.2336,0.7664	-1951.34
0.2444,0.7556	-1964.14
0.2745,0.7255	-1973.46
0.1903,0.8097	-1952.86
0.1904,0.8096	-1944.18
0.1977,0.8023	-1939.60
0.2244,0.7756	-1962.39
0.2284,0.7716	-1965.86
0.2603,0.7397	-1954.81
0.2291,0.7709	-1948.83
0.1987,0.8013	-1949.34
0.2109,0.7891	-1948.83
0.1975,0.8025	-1941.00
0.2141,0.7859	-1947.46
0.2720,0.7280	-1944.90
0.2138,0.7862	-1950.07
0.2132,0.7868	-1946.17
0.2277,0.7723	-1952.47
0.2102,0.7898	-1952.82
0.2308,0.7692	-1957.31
0.2008,0.7992	-1939.55
0.2052,0.7948	-1925.99
0.2028,0.7972	-1947.75
0.2457,0.7543	-1949.54
0.2226,0.7774	-1944.98
0.2262,0.7738	-1957.39
0.2167,0.7833	-1951.30
0.1894,0.8106	-1941.33
0.2011,0.7989	-1947.82
0.2302,0.7698	-1951.28
0.2060,0.7940	-1943.58
0.2494,0.7506	-1951.98
0.2263,0.7737	-1961.07
0.1759,0.8241	-1928.49
0.2068,0.7932	-1954.32
0.2276,0.7724	-1953.69
0.1859,0.8141	-1940.06
0.2345,0.7655	-1956.10
0.2552,0.7448	-1964.13
0.2029,0.7971	-1939.53
0.2268,0.7732	-1951.24
0.1918,0.8082	-1945.53
0.2000,0.8000	-1929.86
0.2761,0.7239	-1962.87
0.2138,0.7862	-1955.28
0.2330,0.7670	-1948.95
0.2392,0.7608	-1952.66
0.2117,0.7883	-1950.12
0.2205,0.7795	-1963.88
0.2459,0.7541	-1956.28
0.2372,0.7628	-1961.95
0.2631,0.7369	-1964.28
0.2572,0.7428	-1957.80
0.2172,0.7828	-1946.17
0.2428,0.7572	-1948.24
0.2469,0.7531	-1940.69
0.2388,0.7612	-1959.61
0.2289,0.7711	-1963.41
0.2852,0.7148	-1969.92
0.2152,0.7848	-1944.87
0.2384,0.7616	-1952.64
0.2090,0.7910	-1943.55
0.2629,0.7371	-1969.43
0.2086,0.7914	-1943.56
0.2647,0.7353	-1972.50
0.1983,0.8017	-1952.16
0.2243,0.7757	-1959.92
0.2095,0.7905	-1951.52
0.2489,0.7511	-1946.43
0.2017,0.7983	-1954.67
0.2718,0.7282	-1964.59
0.2421,0.7579	-1932.21
0.2200,0.7800	-1952.52
0.2283,0.7717	-1947.60
0.2408,0.7592	-1961.90
0.2173,0.7827	-1947.45
0.2526,0.7474	-1956.52
0.2559,0.7441	-1974.81
0.2349,0.7651	-1958.46
0.2179,0.7821	-1941.06
0.2172,0.7828	-1958.99
0.1846,0.8154	-1932.72
0.2371,0.7629	-1965.46
0.2675,0.7325	-1960.39
0.2242,0.7758	-1947.51
0.2131,0.7869	-1955.31
0.2246,0.7754	-1951.23
0.2018,0.7982	-1946.41
0.2592,0.7408	-1955.79
0.2437,0.7563	-1952.82
0.2099,0.7901	-1954.15
0.2160,0.7840	-1939.72
0.1861,0.8139	-1935.63
0.2045,0.7955	-1947.68
0.2926,0.7074	-1968.52
0.2699,0.7301	-1954.56
0.1905,0.8095	-1944.17
0.2533,0.7467	-1953.31
0.2239,0.7761	-1945.02
0.1884,0.8116	-1937.01
0.2743,0.7257	-1963.73
0.2436,0.7564	-1960.75
0.1873,0.8127	-1957.60
0.2524,0.7476	-1953.25
0.1871,0.8129	-1939.99
0.1868,0.8132	-1954.72
0.2467,0.7533	-1958.53
0.2476,0.7524	-1951.88
0.2475,0.7525	-1948.54
0.2482,0.7518	-1947.49
0.2156,0.7844	-1941.00
0.2137,0.7863	-1953.98
0.2398,0.7602	-1950.38
0.2077,0.7923	-1952.94
0.2524,0.7476	-1952.17
0.2252,0.7748	-1940.11
0.1939,0.8061	-1953.95
0.2557,0.7443	-1959.87
0.2356,0.7644	-1953.75
0.2110,0.7890	-1950.14
0.2639,0.7361	-1962.25
0.2343,0.7657	-1954.91
0.1735,0.8265	-1941.09
0.2550,0.7450	-1973.78
0.2874,0.7126	-1968.21
0.2162,0.7838	-1931.99
0.2066,0.7934	-1948.96
0.2351,0.7649	-1943.12
0.1806,0.8194	-1944.97
0.2631,0.7369	-1959.14
0.2874,0.7126	-1969.12
0.2310,0.7690	-1958.51
0.2056,0.7944	-1928.72
0.2171,0.7829	-1935.91
0.1843,0.8157	-1926.78
0.2423,0.7577	-1943.65
0.2804,0.7196	-1967.86
0.1932,0.8068	-1938.29
0.1930,0.8070	-1936.87
0.2123,0.7877	-1940.93
0.2275,0.7725	-1956.14
0.2668,0.7332	-1970.46
0.2926,0.7074	-1975.58
0.1848,0.8152	-1947.56
0.2351,0.7649	-1959.64
0.1804,0.8196	-1944.99
0.2160,0.7840	-1946.16
0.2812,0.7188	-1966.95
0.2793,0.7207	-1963.07
0.1575,0.8425	-1926.61
0.2206,0.7794	-1951.25
0.2125,0.7875	-1947.48
0.2307,0.7693	-1947.67
0.2026,0.7974	-1936.80
0.2821,0.7179	-1974.47
0.2201,0.7799	-1947.46
0.2363,0.7637	-1960.80
0.2296,0.7704	-1953.69
0.2380,0.7620	-1960.77
0.2179,0.7821	-1951.28
0.3020,0.6980	-1961.66
0.2217,0.7783	-1956.26
0.2082,0.7918	-1958.25
0.2184,0.7816	-1953.82
0.1921,0.8079	-1942.63
0.2430,0.7570	-1945.98
0.2480,0.7520	-1953.02
0.2429,0.7571	-1956.20
0.1904,0.8096	-1951.41
0.2304,0.7696	-1941.63
0.1970,0.8030	-1943.83
0.2453,0.7547	-1950.64
0.2449,0.7551	-1955.12
0.2618,0.7382	-1967.36
0.1872,0.8128	-1941.46
0.2022,0.7978	-1949.15
0.2173,0.7827	-1951.29
0.2603,0.7397	-1968.39
0.2528,0.7472	-1950.02
0.2652,0.7348	-1956.19
0.2000,0.8000	-1949.26
0.1890,0.8110	-1934.07
0.2419,0.7581	-1950.47
0.2493,0.7507	-1963.00
0.2490,0.7510	-1960.79
0.2339,0.7661	-1956.09
0.1967,0.8033	-1956.50
0.1832,0.8168	-1929.78
0.2084,0.7916	-1944.89
0.2695,0.7305	-1958.51
0.2259,0.7741	-1959.86
0.2444,0.7556	-1955.11
0.1946,0.8054	-1938.26
0.1772,0.8228	-1931.51
0.2034,0.7966	-1943.63
0.2452,0.7548	-1957.38
0.2142,0.7858	-1939.66
0.2419,0.7581	-1945.90
0.2056,0.7944	-1948.99
0.2005,0.7995	-1936.79
0.1956,0.8044	-1929.75
0.2561,0.7439	-1963.08
0.2420,0.7580	-1945.91
0.2273,0.7727	-1953.69
0.2234,0.7766	-1937.52
0.1730,0.8270	-1963.06
0.2155,0.7845	-1943.58
0.2617,0.7383	-1956.99
0.2271,0.7729	-1946.34
0.2502,0.7498	-1953.13
0.2337,0.7663	-1945.41
0.2070,0.7930	-1939.54
0.1928,0.8072	-1931.14
0.2289,0.7711	-1958.55
0.2315,0.7685	-1957.30
0.2319,0.7681	-1952.50
0.1986,0.8014	-1950.74
0.1872,0.8128	-1950.27
0.2202,0.7798	-1929.75
0.2040,0.7960	-1955.87
0.2444,0.7556	-1960.75
0.2375,0.7625	-1964.28
0.2223,0.7777	-1954.99
0.1859,0.8141	-1937.11
0.2439,0.7561	-1961.88
0.2165,0.7835	-1951.31
0.2890,0.7110	-1967.40
0.2362,0.7638	-1959.63
0.2364,0.7636	-1954.93
0.2186,0.7814	-1965.29
0.2297,0.7703	-1950.06
0.2359,0.7641	-1949.05
0.2812,0.7188	-1969.77
0.2303,0.7697	-1948.87
0.2338,0.7662	-1962.03
0.2037,0.7963	-1946.35
0.2337,0.7663	-1951.34
0.2295,0.7705	-1957.32
0.2333,0.7667	-1956.09
0.2621,0.7379	-1968.40
0.2221,0.7779	-1953.74
0.2072,0.7928	-1946.25
0.2025,0.7975	-1934.05
0.2399,0.7601	-1954.99
0.2340,0.7660	-1951.35
0.2597,0.7403	-1961.06
0.2524,0.7476	-1952.16
0.2208,0.7792	-1955.03
0.2187,0.7813	-1948.72
0.2263,0.7737	-1950.01
0.2320,0.7680	-1957.29
0.2379,0.7621	-1944.48
0.2097,0.7903	-1948.86
0.2553,0.7447	-1956.64
0.2210,0.7790	-1960.06
0.2671,0.7329	-1971.47
0.1904,0.8096	-1947.07
0.2342,0.7658	-1971.50
0.2175,0.7825	-1937.21
0.2396,0.7604	-1963.07
0.2576,0.7424	-1966.28
0.2566,0.7434	-1962.02
0.1988,0.8012	-1952.13
0.2398,0.7602	-1953.84
0.2106,0.7894	-1950.15
0.2351,0.7649	-1946.66
0.2481,0.7519	-1957.46
0.2340,0.7660	-1947.79
0.2196,0.7804	-1961.40
0.2069,0.7931	-1948.94
0.2211,0.7789	-1960.06
0.2258,0.7742	-1942.61
0.2595,0.7405	-1949.52
0.2264,0.7736	-1948.78
0.2207,0.7793	-1937.37
0.2077,0.7923	-1943.56
0.2229,0.7771	-1949.98
0.2365,0.7635	-1938.53
0.2603,0.7397	-1964.21
0.2105,0.7895	-1934.29
0.2120,0.7880	-1943.55
0.1779,0.8221	-1939.13
0.2541,0.7459	-1951.20
0.2262,0.7738	-1951.24
0.2108,0.7892	-1939.59
0.1880,0.8120	-1928.24
0.1749,0.8251	-1953.36
0.1902,0.8098	-1922.46
0.2326,0.7674	-1954.90
0.2449,0.7551	-1961.88
0.2444,0.7556	-1965.27
0.1796,0.8204	-1951.15
0.1934,0.8066	-1939.71
0.1894,0.8106	-1944.24
0.2430,0.7570	-1948.25
0.2350,0.7650	-1951.38
0.2367,0.7633	-1961.96
0.2074,0.7926	-1947.59
0.2021,0.7979	-1940.91
0.2154,0.7846	-1939.70
0.2378,0.7622	-1966.60
0.2322,0.7678	-1948.92
0.2164,0.7836	-1935.87
0.2045,0.7955	-1949.04
0.1909,0.8091	-1935.48
0.2348,0.7652	-1953.73
0.2291,0.7709	-1960.97
0.2654,0.7346	-1959.26
0.2302,0.7698	-1951.28
0.2120,0.7880	-1944.86
0.2160,0.7840	-1947.45
0.2267,0.7733	-1932.83
0.2497,0.7503	-1958.60
0.3096,0.6904	-1967.43
0.2373,0.7627	-1954.95
0.1947,0.8053	-1953.87
0.2187,0.7813	-1957.64
0.2234,0.7766	-1933.79
0.2281,0.7719	-1957.35
0.2744,0.7256	-1958.87
0.2232,0.7768	-1958.72
0.1969,0.8031	-1936.80
0.2420,0.7580	-1952.76
0.2548,0.7452	-1961.98
0.2650,0.7350	-1962.30
0.2613,0.7387	-1952.80
0.2181,0.7819	-1958.94
0.2125,0.7875	-1944.86
0.2081,0.7919	-1946.23
0.2517,0.7483	-1947.76
0.2605,0.7395	-1966.31
0.2219,0.7781	-1946.22
0.2154,0.7846	-1950.04
0.2242,0.7758	-1949.99
0.2237,0.7763	-1961.19
0.2212,0.7788	-1938.66
0.2721,0.7279	-1963.62
0.2183,0.7817	-1942.35
0.1785,0.8215	-1934.50
0.2393,0.7607	-1956.14
0.2128,0.7872	-1938.32
0.2195,0.7805	-1937.30
0.2643,0.7357	-1970.46
0.2385,0.7615	-1957.29
0.1640,0.8360	-1930.91
0.2186,0.7814	-1951.27
0.2004,0.7996	-1940.94
0.2048,0.7952	-1959.88
0.3026,0.6974	-1962.56
0.2508,0.7492	-1961.92
0.2057,0.7943	-1953.05
0.2025,0.7975	-1938.17
0.2085,0.7915	-1947.56
0.2316,0.7684	-1946.51
0.2786,0.7214	-1961.12
0.2343,0.7657	-1959.65
0.2109,0.7891	-1939.59
0.2038,0.7962	-1947.71
0.2156,0.7844	-1961.66
0.2312,0.7688	-1939.28
0.2939,0.7061	-1968.61
0.2508,0.7492	-1949.88
0.2344,0.7656	-1956.10
0.1969,0.8031	-1939.62
0.2260,0.7740	-1942.62
0.2228,0.7772	-1952.48
0.2655,0.7345	-1964.35
0.2259,0.7741	-1953.70
0.2403,0.7597	-1965.36
0.2078,0.7922	-1940.88
0.1934,0.8066	-1942.57
0.2867,0.7133	-1966.34
0.2605,0.7395	-1951.70
0.2255,0.7745	-1938.90
0.1875,0.8125	-1951.70
0.1892,0.8108	-1944.25
0.1795,0.8205	-1943.56
0.2833,0.7167	-1960.56
0.2709,0.7291	-1965.54
0.2112,0.7888	-1956.72
0.2193,0.7807	-1956.34
0.1902,0.8098	-1949.99
0.1956,0.8044	-1945.30
0.2877,0.7123	-1972.76
0.2719,0.7281	-1956.71
0.2070,0.7930	-1951.63
0.1976,0.8024	-1945.20
0.2282,0.7718	-1956.13
0.2061,0.7939	-1940.88
0.2719,0.7281	-1954.75
0.2981,0.7019	-1964.61
0.1960,0.8040	-1943.87
0.2286,0.7714	-1975.58
0.2422,0.7578	-1949.34
0.2076,0.7924	-1931.51
0.2741,0.7259	-1964.69
0.3000,0.7000	-1964.80
0.2009,0.7991	-1929.89
0.2440,0.7560	-1964.14
0.2368,0.7632	-1959.62
0.2079,0.7921	-1938.21
0.1999,0.8001	-1935.40
0.2632,0.7368	-1962.23
0.1875,0.8125	-1942.90
0.2300,0.7700	-1958.52
0.2425,0.7575	-1960.75
0.2196,0.7804	-1944.92
0.2527,0.7473	-1957.61
0.2527,0.7473	-1965.20
0.2046,0.7954	-1939.53
0.2008,0.7992	-1945.07
0.2136,0.7864	-1943.56
0.2296,0.7704	-1948.85
0.2603,0.7397	-1966.30
0.2473,0.7527	-1968.56
0.2360,0.7640	-1952.58
0.2006,0.7994	-1964.44
0.1918,0.8082	-1942.65
0.2293,0.7707	-1952.48
0.2297,0.7703	-1946.43
0.2540,0.7460	-1973.82
0.2296,0.7704	-1936.74
0.2291,0.7709	-1948.84
0.2271,0.7729	-1936.55
0.2658,0.7342	-1955.22
0.2198,0.7802	-1952.52
0.2569,0.7431	-1969.46
0.2857,0.7143	-1980.03
0.2042,0.7958	-1938.17
0.2500,0.7500	-1948.72
0.2700,0.7300	-1957.55
0.2345,0.7655	-1950.18
0.2940,0.7060	-1958.97
0.2617,0.7383	-1955.95
0.2298,0.7702	-1951.27
0.2155,0.7845	-1951.33
0.2857,0.7143	-1964.45
0.2326,0.7674	-1953.71
0.2500,0.7500	-1973.99
0.2430,0.7570	-1947.11
0.2062,0.7938	-1935.49
0.2185,0.7815	-1962.74
0.2350,0.7650	-1956.10
0.2157,0.7843	-1951.33
0.2425,0.7575	-1958.47
0.1974,0.8026	-1938.20
0.1935,0.8065	-1939.71
0.2109,0.7891	-1954.11
0.2114,0.7886	-1942.23
0.2442,0.7558	-1935.89
0.2298,0.7702	-1953.69
0.2065,0.7935	-1940.88
0.2169,0.7831	-1937.18
0.2267,0.7733	-1954.92
0.2211,0.7789	-1949.98
0.2213,0.7787	-1952.50
0.2308,0.7692	-1941.66
0.2521,0.7479	-1940.18
0.1731,0.8269	-1938.01
0.2150,0.7850	-1959.11
0.2469,0.7531	-1950.73
0.1931,0.8069	-1932.58
0.2255,0.7745	-1953.70
0.2638,0.7362	-1959.17
0.2172,0.7828	-1946.17
0.2092,0.7908	-1936.90
0.2528,0.7472	-1961.94
0.1984,0.8016	-1947.96
0.2354,0.7646	-1954.92
0.2393,0.7607	-1943.41
0.2105,0.7895	-1960.73
0.2231,0.7769	-1944.99
0.2687,0.7313	-1960.46
0.1954,0.8046	-1935.41
0.2202,0.7798	-1946.19
0.2299,0.7701	-1954.90
0.2081,0.7919	-1944.89
0.2056,0.7944	-1942.24
0.2583,0.7417	-1954.68
0.2128,0.7872	-1951.40
0.2300,0.7700	-1960.94
0.2075,0.7925	-1950.26
0.2260,0.7740	-1951.24
0.2432,0.7568	-1952.80
0.2322,0.7678	-1948.92
0.2244,0.7756	-1966.11
0.2231,0.7769	-1943.75
0.1939,0.8061	-1942.55
0.1990,0.8010	-1947.93
0.2349,0.7651	-1947.83
0.1974,0.8026	-1946.62
0.2193,0.7807	-1947.45
0.2275,0.7725	-1943.91
0.1946,0.8054	-1943.94
0.2199,0.7801	-1962.65
0.2628,0.7372	-1956.02
0.1973,0.8027	-1936.80
0.2033,0.7967	-1940.90
0.2594,0.7406	-1969.44
0.2064,0.7936	-1950.31
0.1921,0.8079	-1935.45
0.2374,0.7626	-1958.45
0.2164,0.7836	-1950.02
0.2140,0.7860	-1938.36
0.2620,0.7380	-1959.07
0.2031,0.7969	-1950.47
0.2129,0.7871	-1940.94
0.2230,0.7770	-1962.47
0.2426,0.7574	-1950.50
0.2235,0.7765	-1956.21
0.2496,0.7504	-1956.40
0.1990,0.8010	-1950.72
0.2213,0.7787	-1953.76
0.2382,0.7618	-1956.12
0.2002,0.7998	-1956.17
0.2254,0.7746	-1956.17
0.2531,0.7469	-1957.62
0.1979,0.8021	-1931.20
0.2364,0.7636	-1953.76
0.2195,0.7805	-1947.45
0.2328,0.7672	-1957.29
0.2198,0.7802	-1948.72
0.2731,0.7269	-1970.52
0.1981,0.8019	-1949.38
0.2585,0.7415	-1959.96
0.1926,0.8074	-1936.88
0.2043,0.7957	-1958.57
0.2140,0.7860	-1937.06
0.2875,0.7125	-1973.66
0.1647,0.8353	-1937.34
0.2670,0.7330	-1959.36
0.2376,0.7624	-1959.61
0.2347,0.7653	-1965.55
0.1892,0.8108	-1934.07
0.2750,0.7250	-1961.83
0.1792,0.8208	-1945.11
0.2825,0.7175	-1972.61
0.2140,0.7860	-1947.46
0.2378,0.7622	-1950.30
0.2475,0.7525	-1959.66
0.2281,0.7719	-1943.94
0.1754,0.8246	-1925.42
0.2500,0.7500	-1956.41
0.2026,0.7974	-1940.91
0.2490,0.7510	-1954.17
0.2744,0.7256	-1962.76
0.2346,0.7654	-1950.19
0.1886,0.8114	-1945.75
0.2805,0.7195	-1967.86
0.2032,0.7968	-1964.13
0.2606,0.7394	-1968.39
0.2383,0.7617	-1971.23
0.2383,0.7617	-1949.15
0.1970,0.8030	-1948.04
0.2419,0.7581	-1955.04
0.2277,0.7723	-1948.81
0.2405,0.7595	-1946.96
0.2087,0.7913	-1922.23
0.2440,0.7560	-1957.36
0.1991,0.8009	-1939.57
0.1962,0.8038	-1957.97
0.2403,0.7597	-1952.70
0.2335,0.7665	-1948.96
0.2206,0.7794	-1951.25
0.2370,0.7630	-1949.09
0.2098,0.7902	-1946.20
0.2249,0.7751	-1953.71
0.2404,0.7596	-1944.65
0.2287,0.7713	-1954.90
0.2064,0.7936	-1939.54
0.2296,0.7704	-1946.43
0.2249,0.7751	-1967.32
0.1993,0.8007	-1928.45
0.2428,0.7572	-1953.93
0.2444,0.7556	-1956.24
0.1988,0.8012	-1947.94
0.2078,0.7922	-1948.92
0.2350,0.7650	-1958.46
0.2201,0.7799	-1960.11
0.2674,0.7326	-1966.43
0.2425,0.7575	-1951.64
0.2138,0.7862	-1948.77
0.1716,0.8284	-1936.58
0.2600,0.7400	-1945.38
0.2343,0.7657	-1951.36
0.2613,0.7387	-1960.08
0.2278,0.7722	-1942.70
0.2220,0.7780	-1946.22
0.1466,0.8534	-1929.83
0.2763,0.7237	-1961.92
0.2516,0.7484	-1954.29
0.2211,0.7789	-1948.73
0.2529,0.7471	-1960.86
0.2279,0.7721	-1942.71
0.1398,0.8602	-1943.82
0.2864,0.7136	-1969.98
0.2636,0.7364	-1963.27
0.2140,0.7860	-1953.97
0.2606,0.7394	-1956.92
0.2271,0.7729	-1942.67
0.1625,0.8375	-1937.62
0.2772,0.7228	-1971.56
0.2441,0.7559	-1951.71
0.1971,0.8029	-1933.99
0.2527,0.7473	-1960.86
0.2359,0.7641	-1950.22
0.1908,0.8092	-1939.81
0.2298,0.7702	-1953.69
0.2838,0.7162	-1955.98
0.2235,0.7765	-1947.50
0.2061,0.7939	-1954.37
0.2396,0.7604	-1950.37
0.2183,0.7817	-1948.72
0.2162,0.7838	-1946.16
0.2076,0.7924	-1943.56
0.2388,0.7612	-1960.77
0.2131,0.7869	-1951.39
0.2354,0.7646	-1949.03
0.2195,0.7805	-1949.99
0.2167,0.7833	-1941.02
0.2172,0.7828	-1952.58
0.2511,0.7489	-1957.55
0.2071,0.7929	-1939.54
0.2323,0.7677	-1959.68
0.1928,0.8072	-1945.47
0.2195,0.7805	-1948.72
0.1839,0.8161	-1943.17
0.2333,0.7667	-1953.72
0.2120,0.7880	-1952.74
0.2646,0.7354	-1964.32
0.1787,0.8213	-1936.02
0.2240,0.7760	-1953.72
0.2305,0.7695	-1950.08
0.2236,0.7764	-1949.99
0.2271,0.7729	-1947.57
0.3142,0.6858	-1963.24
0.1838,0.8162	-1934.23
0.2543,0.7457	-1954.44
0.2305,0.7695	-1942.84
0.2254,0.7746	-1940.12
0.2408,0.7592	-1957.31
0.3016,0.6984	-1968.32
0.2321,0.7679	-1947.72
0.2749,0.7251	-1968.61
0.2412,0.7588	-1950.44
0.2359,0.7641	-1949.05
0.2057,0.7943	-1944.94
0.2565,0.7435	-1957.76
0.2054,0.7946	-1954.41
0.2360,0.7640	-1939.66
0.2576,0.7424	-1965.22
0.2067,0.7933	-1944.92
0.2057,0.7943	-1959.79
0.2634,0.7366	-1949.89
0.1912,0.8088	-1935.47
0.2294,0.7706	-1950.05
0.2426,0.7574	-1959.61
0.2764,0.7236	-1972.51
0.2033,0.7967	-1934.07
0.2007,0.7993	-1940.93
0.1955,0.8045	-1939.65
0.2399,0.7601	-1960.76
0.2367,0.7633	-1961.96
0.2491,0.7509	-1961.90
0.2216,0.7784	-1956.27
0.2046,0.7954	-1940.89
0.2417,0.7583	-1965.32
0.2257,0.7743	-1948.77
0.2500,0.7500	-1961.91
0.2412,0.7588	-1961.90
0.2037,0.7963	-1939.53
0.2160,0.7840	-1956.47
0.2602,0.7398	-1949.58
0.1995,0.8005	-1940.96
0.2402,0.7598	-1957.30
0.2392,0.7608	-1950.35
0.2083,0.7917	-1946.23
0.2355,0.7645	-1951.39
0.2309,0.7691	-1953.69
0.1946,0.8054	-1928.31
0.2568,0.7432	-1956.71
0.2154,0.7846	-1961.67
0.2207,0.7793	-1958.82
0.2699,0.7301	-1971.48
0.2107,0.7893	-1946.19
0.2067,0.7933	-1946.26
0.2416,0.7584	-1948.17
0.1832,0.8168	-1940.24
0.2118,0.7882	-1947.49
0.2249,0.7751	-1952.47
0.2205,0.7795	-1941.15
0.2124,0.7876	-1939.62
0.2427,0.7573	-1953.92
0.2016,0.7984	-1945.05
0.2322,0.7678	-1938.16
0.2637,0.7363	-1953.00
0.2242,0.7758	-1937.57
0.1857,0.8143	-1950.43
0.2651,0.7349	-1950.07
0.2265,0.7735	-1951.24
0.2536,0.7464	-1956.56
0.2448,0.7552	-1953.99
0.2420,0.7580	-1958.47
0.2239,0.7761	-1947.50
0.2582,0.7418	-1964.17
0.2030,0.7970	-1934.06
0.2422,0.7578	-1952.77
0.2454,0.7546	-1951.77
0.2123,0.7877	-1940.93
0.2245,0.7755	-1943.79
0.2545,0.7455	-1963.05
0.2164,0.7836	-1929.43
0.2308,0.7692	-1960.92
0.2117,0.7883	-1958.01
0.2282,0.7718	-1946.38
0.2399,0.7601	-1958.45
0.2512,0.7488	-1957.55
0.2350,0.7650	-1954.92
0.2237,0.7763	-1952.48
0.2048,0.7952	-1947.67
0.1944,0.8056	-1936.84
0.2341,0.7659	-1953.72
0.2250,0.7750	-1938.87
0.1904,0.8096	-1944.17
0.2384,0.7616	-1953.80
0.2102,0.7898	-1940.90
0.2168,0.7832	-1947.45
0.2196,0.7804	-1956.33
0.2265,0.7735	-1948.78
0.1963,0.8037	-1948.09
0.2514,0.7486	-1952.10
0.1918,0.8082	-1944.09
0.2039,0.7961	-1944.98
0.2280,0.7720	-1950.03
0.2208,0.7792	-1956.29
0.2200,0.7800	-1956.32
0.2587,0.7413	-1962.08
0.2014,0.7986	-1949.19
0.1847,0.8153	-1957.95
0.2347,0.7653	-1947.82
0.2155,0.7845	-1943.58
0.2230,0.7770	-1958.72
0.2673,0.7327	-1954.33
0.2251,0.7749	-1954.94
0.1816,0.8184	-1938.85
0.2377,0.7623	-1950.29
0.2276,0.7724	-1936.59
0.2367,0.7633	-1954.94
0.2543,0.7457	-1953.36
0.2166,0.7834	-1952.59
0.1965,0.8035	-1936.81
0.2312,0.7688	-1958.50
0.2199,0.7801	-1953.79
0.2218,0.7782	-1936.18
0.2045,0.7955	-1936.81
0.2189,0.7811	-1961.44
0.2414,0.7586	-1956.17
0.2332,0.7668	-1947.76
0.2358,0.7642	-1946.69
0.2352,0.7648	-1953.74
0.1975,0.8025	-1962.03
0.2329,0.7671	-1960.86
0.1971,0.8029	-1950.85
0.2405,0.7595	-1958.46
0.2632,0.7368	-1955.02
0.2463,0.7537	-1959.64
