#isoforms=['ENSG00000110080.SE.2.A.up_ENSG00000110080.SE.2.A.SE1_ENSG00000110080.SE.2.A.dn','ENSG00000110080.SE.2.B.up_ENSG00000110080.SE.2.B.dn']	exon_lens=('ENSG00000110080.SE.2.A.up',61),('ENSG00000110080.SE.2.A.SE1',96),('ENSG00000110080.SE.2.A.dn',190),('ENSG00000110080.SE.2.B.up',61),('ENSG00000110080.SE.2.B.dn',190)	iters=5000	burn_in=500	lag=10	percent_accept=95.17	proposal_type=drift	counts=(0,0):66,(0,1):1,(1,0):101,(1,1):118	assigned_counts=0:210,1:10	chrom=chr11	strand=+	mRNA_starts=126407574,126407574	mRNA_ends=126408496,126408496
sampled_psi	log_score
0.9207,0.0793	-1300.17
0.8886,0.1114	-1296.22
0.8753,0.1247	-1304.82
0.9329,0.0671	-1290.15
0.8867,0.1133	-1304.55
0.8933,0.1067	-1304.49
0.9035,0.0965	-1293.34
0.9237,0.0763	-1287.79
0.9025,0.0975	-1300.06
0.9392,0.0608	-1273.76
0.9037,0.0963	-1300.05
0.9184,0.0816	-1300.12
0.8911,0.1089	-1300.30
0.9111,0.0889	-1293.05
0.9111,0.0889	-1283.74
0.9332,0.0668	-1292.79
0.9112,0.0888	-1300.03
0.9252,0.0748	-1295.28
0.9111,0.0889	-1286.07
0.9201,0.0799	-1297.71
0.9159,0.0841	-1290.52
0.9270,0.0730	-1290.22
0.9065,0.0935	-1304.57
0.9158,0.0842	-1300.07
0.9199,0.0801	-1290.39
0.9329,0.0671	-1279.63
0.9069,0.0931	-1290.93
0.9131,0.0869	-1285.93
0.9249,0.0751	-1297.79
0.9251,0.0749	-1290.25
0.9123,0.0877	-1278.96
0.9200,0.0800	-1300.15
0.9313,0.0687	-1303.19
0.9247,0.0753	-1282.74
0.9281,0.0719	-1292.76
0.9300,0.0700	-1285.00
0.9252,0.0748	-1305.34
0.8962,0.1038	-1306.64
0.9346,0.0654	-1276.85
0.9286,0.0714	-1285.06
0.9349,0.0651	-1284.82
0.9187,0.0813	-1292.85
0.9326,0.0674	-1279.64
0.9219,0.0781	-1295.27
0.9236,0.0764	-1277.82
0.9392,0.0608	-1292.92
0.9220,0.0780	-1292.80
0.9242,0.0758	-1297.78
0.9298,0.0702	-1292.76
0.9337,0.0663	-1282.22
0.9277,0.0723	-1282.55
0.9443,0.0557	-1278.97
0.9191,0.0809	-1292.84
0.9392,0.0608	-1281.97
0.9358,0.0642	-1284.80
0.9204,0.0796	-1285.47
0.9317,0.0683	-1284.93
0.9337,0.0663	-1292.80
0.9176,0.0824	-1285.64
0.9362,0.0638	-1287.47
0.9304,0.0696	-1282.39
0.9117,0.0883	-1290.69
0.9387,0.0613	-1284.72
0.9324,0.0676	-1292.78
0.9219,0.0781	-1295.27
0.9328,0.0672	-1282.27
0.9404,0.0596	-1281.92
0.9050,0.0950	-1291.03
0.9418,0.0582	-1298.58
0.9305,0.0695	-1277.20
0.9274,0.0726	-1300.40
0.9284,0.0716	-1295.32
0.9355,0.0645	-1287.48
0.9155,0.0845	-1285.77
0.9354,0.0646	-1279.46
0.9248,0.0752	-1297.79
0.9245,0.0755	-1295.28
0.9332,0.0668	-1292.79
0.9395,0.0605	-1287.44
0.9057,0.0943	-1293.25
0.9490,0.0510	-1290.47
0.9356,0.0644	-1292.83
0.9205,0.0795	-1295.27
0.9268,0.0732	-1280.06
0.9421,0.0579	-1276.29
0.9043,0.0957	-1297.80
0.9424,0.0576	-1287.45
0.9420,0.0580	-1281.87
0.9284,0.0716	-1305.57
0.9190,0.0810	-1292.85
0.9336,0.0664	-1276.94
0.8976,0.1024	-1306.65
0.9407,0.0593	-1287.44
0.9340,0.0660	-1271.60
0.9478,0.0522	-1290.41
0.9227,0.0773	-1287.83
0.9426,0.0574	-1298.64
0.8787,0.1213	-1306.70
0.9338,0.0662	-1279.56
0.9291,0.0709	-1274.75
0.9606,0.0394	-1278.56
0.9251,0.0749	-1292.77
0.9448,0.0552	-1281.79
0.8851,0.1149	-1312.75
0.9256,0.0744	-1302.85
0.9328,0.0672	-1277.00
0.9601,0.0399	-1275.38
0.9198,0.0802	-1300.15
0.9584,0.0416	-1266.02
0.9067,0.0933	-1304.58
0.9096,0.0904	-1306.95
0.9130,0.0870	-1300.04
0.9484,0.0516	-1275.89
0.9304,0.0696	-1290.17
0.9545,0.0455	-1284.70
0.9057,0.0943	-1293.25
0.8907,0.1093	-1291.92
0.9271,0.0729	-1290.21
0.9529,0.0471	-1275.65
0.8995,0.1005	-1297.91
0.9591,0.0409	-1291.18
0.8983,0.1017	-1306.66
0.8529,0.1471	-1307.56
0.9341,0.0659	-1287.50
0.9518,0.0482	-1278.68
0.9036,0.0964	-1293.34
0.9592,0.0408	-1284.87
0.8942,0.1058	-1308.75
0.8700,0.1300	-1297.40
0.9403,0.0597	-1281.93
0.9429,0.0571	-1276.23
0.9089,0.0911	-1293.12
0.9674,0.0326	-1271.89
0.8878,0.1122	-1312.81
0.8782,0.1218	-1304.74
0.9477,0.0523	-1290.41
0.9389,0.0611	-1273.79
0.9160,0.0840	-1290.52
0.9669,0.0331	-1271.90
0.8754,0.1246	-1298.97
0.8882,0.1118	-1292.10
0.9426,0.0574	-1290.25
0.9419,0.0581	-1281.87
0.9118,0.0882	-1300.03
0.9657,0.0343	-1285.29
0.8995,0.1005	-1300.11
0.8761,0.1239	-1295.01
0.9508,0.0492	-1293.52
0.9430,0.0570	-1281.84
0.9207,0.0793	-1300.17
0.9628,0.0372	-1265.56
0.9056,0.0944	-1313.60
0.8591,0.1409	-1309.09
0.9399,0.0601	-1276.44
0.9388,0.0612	-1287.45
0.9128,0.0872	-1300.04
0.9607,0.0393	-1268.97
0.9172,0.0828	-1285.66
0.8568,0.1432	-1307.39
0.9416,0.0584	-1293.00
0.9315,0.0685	-1287.55
0.9014,0.0986	-1297.86
0.9620,0.0380	-1272.10
0.9201,0.0799	-1302.60
0.8462,0.1538	-1297.68
0.9393,0.0607	-1287.45
0.9339,0.0661	-1274.26
0.9142,0.0858	-1307.15
0.9695,0.0305	-1271.84
0.9192,0.0808	-1292.84
0.8580,0.1420	-1318.12
0.9347,0.0653	-1300.80
0.9373,0.0627	-1298.27
0.9219,0.0781	-1300.20
0.9632,0.0368	-1275.31
0.9190,0.0810	-1290.42
0.8510,0.1490	-1312.88
0.9419,0.0581	-1270.73
0.9325,0.0675	-1282.28
0.9296,0.0704	-1285.02
0.9633,0.0367	-1281.84
0.9288,0.0712	-1297.89
0.8410,0.1590	-1316.53
0.9272,0.0728	-1292.76
0.9402,0.0598	-1284.69
0.9272,0.0728	-1285.13
0.9658,0.0342	-1278.62
0.9337,0.0663	-1274.28
0.8536,0.1464	-1307.53
0.9307,0.0693	-1292.77
0.9438,0.0562	-1281.81
0.9051,0.0949	-1304.55
0.9694,0.0306	-1275.30
0.9406,0.0594	-1295.73
0.8551,0.1449	-1307.46
0.9570,0.0430	-1278.58
0.9383,0.0617	-1284.73
0.8993,0.1007	-1306.68
0.9646,0.0354	-1275.29
0.9481,0.0519	-1281.71
0.8761,0.1239	-1308.71
0.9553,0.0447	-1275.54
0.9537,0.0463	-1281.66
0.8957,0.1043	-1304.48
0.9523,0.0477	-1281.66
0.9441,0.0559	-1281.80
0.8830,0.1170	-1300.58
0.9609,0.0391	-1268.95
0.9535,0.0465	-1275.62
0.8824,0.1176	-1302.62
0.9557,0.0443	-1278.59
0.9438,0.0562	-1284.63
0.9035,0.0965	-1295.58
0.9720,0.0280	-1278.90
0.9489,0.0511	-1293.38
0.8756,0.1244	-1316.52
0.9577,0.0423	-1287.93
0.9454,0.0546	-1281.77
0.9124,0.0876	-1293.01
0.9696,0.0304	-1278.76
0.9437,0.0563	-1281.81
0.8810,0.1190	-1302.66
0.9566,0.0434	-1272.40
0.9595,0.0405	-1281.72
0.9285,0.0715	-1282.50
0.9717,0.0283	-1268.27
0.9396,0.0604	-1279.21
0.8941,0.1059	-1308.75
0.9587,0.0413	-1281.71
0.9660,0.0340	-1271.94
0.9242,0.0758	-1287.77
0.9761,0.0239	-1275.53
0.9522,0.0478	-1266.70
0.9031,0.0969	-1295.59
0.9669,0.0331	-1282.03
0.9654,0.0346	-1281.94
0.9298,0.0702	-1303.10
0.9748,0.0252	-1275.46
0.9495,0.0505	-1267.02
0.9027,0.0973	-1308.97
0.9657,0.0343	-1275.28
0.9718,0.0282	-1278.89
0.9456,0.0544	-1284.62
0.9741,0.0259	-1279.06
0.9587,0.0413	-1272.27
0.8952,0.1048	-1302.34
0.9604,0.0396	-1278.56
0.9764,0.0236	-1275.55
0.9559,0.0441	-1275.52
0.9793,0.0207	-1271.92
0.9688,0.0312	-1271.85
0.9074,0.0926	-1297.75
0.9549,0.0451	-1296.93
0.9710,0.0290	-1264.79
0.9510,0.0490	-1269.81
0.9771,0.0229	-1271.84
0.9675,0.0325	-1275.28
0.8958,0.1042	-1300.18
0.9448,0.0552	-1281.79
0.9741,0.0259	-1279.05
0.9474,0.0526	-1287.51
0.9801,0.0199	-1268.06
0.9653,0.0347	-1275.29
0.8879,0.1121	-1300.40
0.9424,0.0576	-1284.65
0.9762,0.0238	-1271.82
0.9570,0.0430	-1272.37
0.9802,0.0198	-1264.16
0.9675,0.0325	-1268.49
0.8859,0.1141	-1298.42
0.9520,0.0480	-1269.72
0.9796,0.0204	-1279.68
0.9538,0.0462	-1275.60
0.9753,0.0247	-1264.46
0.9657,0.0343	-1271.94
0.9025,0.0975	-1291.16
0.9563,0.0437	-1287.84
0.9831,0.0169	-1276.22
0.9481,0.0519	-1278.81
0.9670,0.0330	-1271.90
0.9648,0.0352	-1271.98
0.8933,0.1067	-1295.99
0.9609,0.0391	-1272.16
0.9807,0.0193	-1264.13
0.9499,0.0501	-1275.80
0.9678,0.0322	-1275.28
0.9675,0.0325	-1278.67
0.9062,0.0938	-1288.69
0.9562,0.0438	-1275.50
0.9812,0.0188	-1268.06
0.9474,0.0526	-1275.94
0.9674,0.0326	-1271.89
0.9612,0.0388	-1268.93
0.9162,0.0838	-1302.47
0.9541,0.0459	-1278.63
0.9813,0.0187	-1264.10
0.9491,0.0509	-1287.55
0.9675,0.0325	-1265.10
0.9642,0.0358	-1285.18
0.9324,0.0676	-1282.28
0.9551,0.0449	-1278.61
0.9805,0.0195	-1260.22
0.9500,0.0500	-1278.74
0.9688,0.0312	-1275.29
0.9697,0.0303	-1271.84
0.9396,0.0604	-1279.21
0.9570,0.0430	-1278.58
0.9840,0.0160	-1268.13
0.9418,0.0582	-1298.58
0.9738,0.0262	-1268.18
0.9782,0.0218	-1268.07
0.9439,0.0561	-1273.34
0.9645,0.0355	-1278.59
0.9754,0.0246	-1268.13
0.9251,0.0749	-1277.69
0.9738,0.0262	-1264.57
0.9791,0.0209	-1268.06
0.9327,0.0673	-1295.41
0.9558,0.0442	-1269.37
0.9770,0.0230	-1268.09
0.9243,0.0757	-1297.78
0.9707,0.0293	-1275.32
0.9827,0.0173	-1268.09
0.9404,0.0596	-1270.89
0.9442,0.0558	-1278.97
0.9762,0.0238	-1275.54
0.9190,0.0810	-1307.42
0.9751,0.0249	-1271.81
0.9803,0.0197	-1264.15
0.9457,0.0543	-1290.34
0.9415,0.0585	-1298.56
0.9809,0.0191	-1268.06
0.9299,0.0701	-1285.00
0.9776,0.0224	-1271.86
0.9816,0.0184	-1268.07
0.9463,0.0537	-1281.75
0.9390,0.0610	-1284.71
0.9792,0.0208	-1268.06
0.9273,0.0727	-1292.76
0.9819,0.0181	-1260.09
0.9842,0.0158	-1268.14
0.9540,0.0460	-1272.56
0.9511,0.0489	-1278.70
0.9731,0.0269	-1264.62
0.9105,0.0895	-1290.75
0.9801,0.0199	-1268.06
0.9837,0.0163	-1272.22
0.9598,0.0402	-1284.90
0.9553,0.0447	-1287.79
0.9709,0.0291	-1268.31
0.8934,0.1066	-1298.11
0.9781,0.0219	-1271.87
0.9791,0.0209	-1260.37
0.9659,0.0341	-1278.63
0.9525,0.0475	-1275.67
0.9669,0.0331	-1282.03
0.8980,0.1020	-1297.96
0.9807,0.0193	-1275.92
0.9777,0.0223	-1268.08
0.9614,0.0386	-1275.34
0.9551,0.0449	-1278.61
0.9677,0.0323	-1265.08
0.9047,0.0953	-1302.29
0.9745,0.0255	-1279.09
0.9730,0.0270	-1271.80
0.9650,0.0350	-1285.24
0.9598,0.0402	-1278.56
0.9727,0.0273	-1275.37
0.9189,0.0811	-1290.42
0.9628,0.0372	-1281.82
0.9720,0.0280	-1271.80
0.9672,0.0328	-1271.90
0.9498,0.0502	-1275.80
0.9650,0.0350	-1271.97
0.9180,0.0820	-1295.28
0.9596,0.0404	-1278.56
0.9754,0.0246	-1264.45
0.9649,0.0351	-1278.60
0.9379,0.0621	-1298.31
0.9691,0.0309	-1271.85
0.9086,0.0914	-1290.84
0.9614,0.0386	-1275.34
0.9782,0.0218	-1264.27
0.9698,0.0302	-1275.30
0.9461,0.0539	-1270.29
0.9728,0.0272	-1271.80
0.9241,0.0759	-1297.77
0.9654,0.0346	-1261.96
0.9772,0.0228	-1271.85
0.9612,0.0388	-1268.93
0.9519,0.0481	-1281.67
0.9741,0.0259	-1268.17
0.9211,0.0789	-1307.55
0.9630,0.0370	-1281.83
0.9752,0.0248	-1264.47
0.9545,0.0455	-1272.53
0.9444,0.0556	-1276.13
0.9728,0.0272	-1268.22
0.9093,0.0907	-1286.20
0.9688,0.0312	-1275.29
0.9731,0.0269	-1271.80
0.9464,0.0536	-1281.75
0.9390,0.0610	-1281.98
0.9781,0.0219	-1279.47
0.9157,0.0843	-1302.46
0.9723,0.0277	-1271.80
0.9721,0.0279	-1275.35
0.9395,0.0605	-1287.44
0.9453,0.0547	-1278.92
0.9802,0.0198	-1275.86
0.9038,0.0962	-1288.85
0.9717,0.0283	-1275.34
0.9746,0.0254	-1275.45
0.9251,0.0749	-1287.74
0.9344,0.0656	-1292.81
0.9840,0.0160	-1264.01
0.9173,0.0827	-1283.25
0.9782,0.0218	-1271.88
0.9698,0.0302	-1271.83
0.9181,0.0819	-1295.28
0.9313,0.0687	-1287.56
0.9810,0.0190	-1272.01
0.9213,0.0787	-1300.19
0.9783,0.0217	-1283.30
0.9688,0.0312	-1271.85
0.9083,0.0917	-1293.15
0.9322,0.0678	-1292.78
0.9788,0.0212	-1268.06
0.9148,0.0852	-1295.31
0.9732,0.0268	-1268.21
0.9721,0.0279	-1278.90
0.9141,0.0859	-1309.51
0.9458,0.0542	-1281.76
0.9790,0.0210	-1271.91
0.9293,0.0707	-1277.30
0.9731,0.0269	-1271.80
0.9716,0.0284	-1271.81
0.9178,0.0822	-1288.04
0.9521,0.0479	-1281.66
0.9812,0.0188	-1272.02
0.9140,0.0860	-1276.41
0.9630,0.0370	-1278.57
0.9748,0.0252	-1264.49
0.9167,0.0833	-1283.30
0.9620,0.0380	-1272.10
0.9820,0.0180	-1264.08
0.9114,0.0886	-1307.02
0.9667,0.0333	-1271.91
0.9725,0.0275	-1264.67
0.9166,0.0834	-1295.29
0.9689,0.0311	-1261.54
0.9800,0.0200	-1271.95
0.9128,0.0872	-1300.04
0.9626,0.0374	-1268.82
0.9739,0.0261	-1268.18
0.9125,0.0875	-1300.04
0.9624,0.0376	-1291.54
0.9766,0.0234	-1275.56
0.8942,0.1058	-1289.55
0.9666,0.0334	-1278.64
0.9794,0.0206	-1268.06
0.9277,0.0723	-1290.20
0.9650,0.0350	-1268.65
0.9703,0.0297	-1268.34
0.9096,0.0904	-1281.56
0.9653,0.0347	-1268.63
0.9836,0.0164	-1264.02
0.9228,0.0772	-1287.83
0.9602,0.0398	-1281.74
0.9728,0.0272	-1261.07
0.9036,0.0964	-1293.34
0.9569,0.0431	-1294.08
0.9766,0.0234	-1279.30
0.9326,0.0674	-1271.76
0.9595,0.0405	-1272.23
0.9681,0.0319	-1271.87
0.9035,0.0965	-1306.76
0.9609,0.0391	-1275.36
0.9739,0.0261	-1279.04
0.9317,0.0683	-1279.71
0.9716,0.0284	-1268.27
0.9652,0.0348	-1271.96
0.8925,0.1075	-1296.03
0.9633,0.0367	-1272.04
0.9789,0.0211	-1271.90
0.9301,0.0699	-1292.76
0.9696,0.0304	-1275.30
0.9580,0.0420	-1275.44
0.8808,0.1192	-1306.67
0.9583,0.0417	-1275.43
0.9822,0.0178	-1272.09
0.9325,0.0675	-1282.28
0.9626,0.0374	-1275.32
0.9537,0.0463	-1272.59
0.8913,0.1087	-1302.40
0.9641,0.0359	-1268.72
0.9794,0.0206	-1279.64
0.9323,0.0677	-1287.54
0.9550,0.0450	-1290.83
0.9578,0.0422	-1284.81
0.9047,0.0953	-1295.54
0.9582,0.0418	-1266.04
0.9784,0.0216	-1260.44
0.9255,0.0745	-1290.24
0.9642,0.0358	-1281.88
0.9534,0.0466	-1275.62
0.9054,0.0946	-1302.30
0.9593,0.0407	-1278.56
0.9791,0.0209	-1283.44
0.9265,0.0735	-1280.09
0.9520,0.0480	-1284.65
0.9534,0.0466	-1275.62
0.8954,0.1046	-1295.89
0.9424,0.0576	-1295.83
0.9832,0.0168	-1259.96
0.9321,0.0679	-1284.92
0.9547,0.0453	-1281.66
0.9408,0.0592	-1268.08
0.9001,0.0999	-1295.70
0.9444,0.0556	-1284.63
0.9853,0.0147	-1263.98
0.9347,0.0653	-1282.17
0.9493,0.0507	-1284.62
0.9607,0.0393	-1265.77
0.8719,0.1281	-1303.01
0.9320,0.0680	-1292.78
0.9871,0.0129	-1268.32
0.9392,0.0608	-1281.97
0.9554,0.0446	-1278.60
0.9579,0.0421	-1272.32
0.8606,0.1394	-1316.33
0.9491,0.0509	-1284.62
0.9903,0.0097	-1273.32
0.9188,0.0812	-1312.26
0.9500,0.0500	-1296.40
0.9598,0.0402	-1291.24
0.9098,0.0902	-1288.47
0.9516,0.0484	-1281.67
0.9897,0.0103	-1259.47
0.9194,0.0806	-1287.97
0.9540,0.0460	-1281.66
0.9679,0.0321	-1278.69
0.8982,0.1018	-1289.24
0.9517,0.0483	-1281.67
0.9882,0.0118	-1268.42
0.9187,0.0813	-1304.98
0.9402,0.0598	-1290.20
0.9699,0.0301	-1264.89
0.8881,0.1119	-1298.32
0.9568,0.0432	-1269.28
0.9925,0.0075	-1264.25
0.9443,0.0557	-1278.97
0.9411,0.0589	-1290.21
0.9659,0.0341	-1265.25
0.8850,0.1150	-1298.46
0.9507,0.0493	-1272.80
0.9934,0.0066	-1259.36
0.9539,0.0461	-1275.60
0.9361,0.0639	-1276.73
0.9602,0.0398	-1269.01
0.8710,0.1290	-1320.24
0.9421,0.0579	-1273.50
0.9924,0.0076	-1264.24
0.9597,0.0403	-1281.73
0.9480,0.0520	-1275.91
0.9596,0.0404	-1272.22
0.8644,0.1356	-1307.08
0.9386,0.0614	-1279.27
0.9923,0.0077	-1259.37
0.9563,0.0437	-1281.67
0.9525,0.0475	-1278.66
0.9612,0.0388	-1278.56
0.8634,0.1366	-1305.27
0.9463,0.0537	-1296.10
0.9912,0.0088	-1259.41
0.9526,0.0474	-1287.66
0.9547,0.0453	-1269.47
0.9658,0.0342	-1278.62
0.8695,0.1305	-1303.12
0.9503,0.0497	-1284.63
0.9913,0.0087	-1264.13
0.9432,0.0568	-1270.59
0.9605,0.0395	-1288.13
0.9672,0.0328	-1285.43
0.8639,0.1361	-1308.95
0.9492,0.0508	-1272.91
0.9906,0.0094	-1268.75
0.9330,0.0670	-1287.52
0.9580,0.0420	-1281.69
0.9701,0.0299	-1268.35
0.8574,0.1426	-1305.57
0.9575,0.0425	-1278.57
0.9917,0.0083	-1259.39
0.9182,0.0818	-1283.19
0.9621,0.0379	-1272.09
0.9735,0.0265	-1260.99
0.8816,0.1184	-1308.67
0.9582,0.0418	-1269.17
0.9905,0.0095	-1268.72
0.9253,0.0747	-1295.28
0.9534,0.0466	-1281.66
0.9757,0.0243	-1282.90
0.8892,0.1108	-1298.27
0.9591,0.0409	-1281.71
0.9899,0.0101	-1259.46
0.9193,0.0807	-1295.27
0.9544,0.0456	-1272.54
0.9737,0.0263	-1264.58
0.8948,0.1052	-1300.20
0.9649,0.0351	-1268.66
0.9915,0.0085	-1264.16
0.9160,0.0840	-1283.35
0.9502,0.0498	-1278.73
0.9581,0.0419	-1281.70
0.8969,0.1031	-1302.32
0.9668,0.0332	-1275.28
0.9902,0.0098	-1264.06
0.9197,0.0803	-1292.83
0.9336,0.0664	-1292.80
0.9572,0.0428	-1275.47
0.8931,0.1069	-1306.61
0.9692,0.0308	-1271.84
0.9871,0.0129	-1263.98
0.9173,0.0827	-1283.25
0.9244,0.0756	-1285.26
0.9641,0.0359	-1278.59
0.8899,0.1101	-1298.25
0.9772,0.0228	-1283.12
0.9821,0.0179	-1268.08
0.9141,0.0859	-1288.23
0.9170,0.0830	-1307.30
0.9721,0.0279	-1282.45
0.8781,0.1219	-1298.82
0.9735,0.0265	-1271.80
0.9772,0.0228	-1264.33
0.9313,0.0687	-1287.56
0.9335,0.0665	-1287.51
0.9737,0.0263	-1271.80
0.8745,0.1255	-1308.73
0.9754,0.0246	-1279.17
0.9760,0.0240	-1271.82
0.9345,0.0655	-1292.81
0.9325,0.0675	-1295.41
0.9756,0.0244	-1271.81
0.8996,0.1004	-1297.91
0.9816,0.0184	-1276.03
0.9773,0.0227	-1268.09
0.9320,0.0680	-1287.54
0.9346,0.0654	-1284.83
0.9768,0.0232	-1286.79
0.9199,0.0801	-1285.51
0.9840,0.0160	-1264.01
0.9779,0.0221	-1260.49
0.9229,0.0771	-1292.79
0.9312,0.0688	-1292.77
0.9783,0.0217	-1268.07
0.9046,0.0954	-1304.54
0.9850,0.0150	-1268.17
0.9687,0.0313	-1261.56
0.9193,0.0807	-1285.54
0.9271,0.0729	-1297.84
0.9772,0.0228	-1264.33
0.9057,0.0943	-1300.04
0.9835,0.0165	-1268.11
0.9688,0.0312	-1271.85
0.9192,0.0808	-1302.57
0.9399,0.0601	-1290.19
0.9755,0.0245	-1271.81
0.8752,0.1248	-1295.08
0.9817,0.0183	-1276.04
0.9715,0.0285	-1268.28
0.9348,0.0652	-1268.85
0.9297,0.0703	-1303.09
0.9657,0.0343	-1268.61
0.8680,0.1320	-1288.12
0.9778,0.0222	-1279.43
0.9795,0.0205	-1271.93
0.9436,0.0564	-1276.18
0.9279,0.0721	-1282.54
0.9643,0.0357	-1278.59
0.8795,0.1205	-1314.64
0.9800,0.0200	-1260.27
0.9786,0.0214	-1264.24
0.9383,0.0617	-1290.17
0.9389,0.0611	-1284.72
0.9659,0.0341	-1271.94
0.8863,0.1137	-1302.51
0.9749,0.0251	-1268.15
0.9785,0.0215	-1264.25
0.9514,0.0486	-1278.70
0.9375,0.0625	-1284.75
0.9635,0.0365	-1272.03
0.8829,0.1171	-1306.64
0.9744,0.0256	-1264.52
0.9796,0.0204	-1275.80
0.9423,0.0577	-1287.45
0.9373,0.0627	-1284.75
0.9623,0.0377	-1285.04
0.8972,0.1028	-1293.65
0.9755,0.0245	-1264.44
0.9843,0.0157	-1272.28
0.9364,0.0636	-1276.71
0.9315,0.0685	-1303.21
0.9650,0.0350	-1265.34
0.8754,0.1246	-1300.92
0.9689,0.0311	-1285.61
0.9856,0.0144	-1268.20
0.9502,0.0498	-1275.78
0.9238,0.0762	-1285.29
0.9589,0.0411	-1269.11
0.8995,0.1005	-1300.10
0.9706,0.0294	-1275.32
0.9847,0.0153	-1263.99
0.9454,0.0546	-1301.73
0.9334,0.0666	-1298.07
0.9611,0.0389	-1281.76
0.9064,0.0936	-1295.49
0.9700,0.0300	-1264.87
0.9864,0.0136	-1259.69
0.9573,0.0427	-1275.46
0.9391,0.0609	-1292.92
0.9636,0.0364	-1281.86
0.9194,0.0806	-1305.01
0.9685,0.0315	-1275.29
0.9877,0.0123	-1281.51
0.9450,0.0550	-1296.00
0.9338,0.0662	-1290.15
0.9601,0.0399	-1294.46
0.9215,0.0785	-1307.58
0.9709,0.0291	-1275.32
0.9902,0.0098	-1268.67
0.9502,0.0498	-1293.47
0.9287,0.0713	-1279.92
0.9575,0.0425	-1272.34
0.9043,0.0957	-1304.54
0.9614,0.0386	-1268.92
0.9904,0.0096	-1259.44
0.9454,0.0546	-1276.07
0.9268,0.0732	-1295.30
0.9630,0.0370	-1275.31
0.8943,0.1057	-1302.35
0.9601,0.0399	-1284.92
0.9910,0.0090	-1259.41
0.9407,0.0593	-1284.68
0.9265,0.0735	-1285.16
0.9632,0.0368	-1265.52
0.8773,0.1227	-1304.76
0.9662,0.0338	-1281.98
0.9913,0.0087	-1259.40
0.9344,0.0656	-1287.50
0.9215,0.0785	-1285.42
0.9625,0.0375	-1272.07
0.8843,0.1157	-1294.43
0.9662,0.0338	-1275.28
0.9914,0.0086	-1268.89
0.9463,0.0537	-1281.75
0.9243,0.0757	-1290.27
0.9665,0.0335	-1285.37
0.8794,0.1206	-1306.69
0.9681,0.0319	-1265.04
0.9919,0.0081	-1268.99
0.9381,0.0619	-1290.17
0.9179,0.0821	-1300.11
0.9630,0.0370	-1281.83
0.8809,0.1191	-1304.67
0.9689,0.0311	-1268.41
0.9929,0.0071	-1259.37
0.9381,0.0619	-1290.17
0.9231,0.0769	-1290.30
0.9629,0.0371	-1278.57
0.8849,0.1151	-1310.70
0.9692,0.0308	-1264.94
0.9946,0.0054	-1264.60
0.9234,0.0766	-1305.23
0.9251,0.0749	-1277.68
0.9708,0.0292	-1275.32
0.8921,0.1079	-1304.49
0.9671,0.0329	-1268.52
0.9948,0.0052	-1259.39
0.9047,0.0953	-1286.54
0.8903,0.1097	-1291.95
0.9751,0.0249	-1264.47
0.8996,0.1004	-1306.68
0.9568,0.0432	-1278.58
0.9954,0.0046	-1259.43
0.9084,0.0916	-1297.73
0.9117,0.0883	-1288.36
0.9781,0.0219	-1271.87
0.8933,0.1067	-1295.99
0.9639,0.0361	-1288.44
0.9956,0.0044	-1259.44
0.8770,0.1230	-1308.70
0.8975,0.1025	-1306.65
0.9763,0.0237	-1271.83
0.9061,0.0939	-1293.23
0.9554,0.0446	-1269.40
0.9957,0.0043	-1259.45
0.8504,0.1496	-1318.11
0.8977,0.1023	-1293.62
0.9778,0.0222	-1275.65
0.9044,0.0956	-1304.54
0.9696,0.0304	-1268.38
0.9951,0.0049	-1259.41
0.8613,0.1387	-1309.02
0.9129,0.0871	-1278.89
0.9767,0.0233	-1271.83
0.8877,0.1123	-1306.61
0.9797,0.0203	-1264.18
0.9938,0.0062	-1264.45
0.8731,0.1269	-1302.96
0.9170,0.0830	-1283.28
0.9767,0.0233	-1268.10
0.9108,0.0892	-1290.74
0.9691,0.0309	-1275.29
0.9940,0.0060	-1264.48
0.8671,0.1329	-1293.87
0.9018,0.0982	-1291.20
0.9714,0.0286	-1271.81
0.8924,0.1076	-1304.49
0.9664,0.0336	-1268.56
0.9936,0.0064	-1259.36
0.8774,0.1226	-1298.85
0.9201,0.0799	-1280.61
0.9682,0.0318	-1282.12
0.8572,0.1428	-1310.95
0.9612,0.0388	-1281.77
0.9947,0.0053	-1259.39
0.8686,0.1314	-1295.61
0.9154,0.0846	-1295.31
0.9677,0.0323	-1278.68
0.8790,0.1210	-1312.65
0.9562,0.0438	-1278.59
0.9924,0.0076	-1259.37
0.8887,0.1113	-1294.14
0.8986,0.1014	-1297.94
0.9687,0.0313	-1271.86
0.8706,0.1294	-1297.36
0.9601,0.0399	-1269.01
0.9912,0.0088	-1259.40
0.8976,0.1024	-1308.82
0.8905,0.1095	-1304.51
0.9724,0.0276	-1271.80
0.8957,0.1043	-1291.57
0.9686,0.0314	-1268.43
