#isoforms=['ENSG00000110080.SE.2.A.up_ENSG00000110080.SE.2.A.SE1_ENSG00000110080.SE.2.A.dn','ENSG00000110080.SE.2.B.up_ENSG00000110080.SE.2.B.dn']	exon_lens=('ENSG00000110080.SE.2.A.up',61),('ENSG00000110080.SE.2.A.SE1',96),('ENSG00000110080.SE.2.A.dn',190),('ENSG00000110080.SE.2.B.up',61),('ENSG00000110080.SE.2.B.dn',190)	iters=5000	burn_in=500	lag=10	percent_accept=94.44	proposal_type=drift	counts=(0,0):162,(1,0):140,(1,1):264	assigned_counts=0:379,1:25	chrom=chr11	strand=+	mRNA_starts=126407574,126407574	mRNA_ends=126408496,126408496
sampled_psi	log_score
0.9306,0.0694	-2378.66
0.8923,0.1077	-2373.57
0.9384,0.0616	-2360.07
0.8938,0.1062	-2381.91
0.9206,0.0794	-2398.10
0.9461,0.0539	-2362.78
0.9277,0.0723	-2383.67
0.9133,0.0867	-2385.69
0.9357,0.0643	-2376.25
0.9089,0.0911	-2411.00
0.9117,0.0883	-2376.34
0.9512,0.0488	-2365.93
0.9446,0.0554	-2365.59
0.8935,0.1065	-2403.21
0.9393,0.0607	-2362.77
0.8966,0.1034	-2370.91
0.9176,0.0824	-2385.75
0.9525,0.0475	-2354.04
0.9397,0.0603	-2365.51
0.8833,0.1167	-2405.10
0.9309,0.0691	-2373.47
0.8856,0.1144	-2384.66
0.9158,0.0842	-2378.56
0.9448,0.0552	-2365.60
0.9312,0.0688	-2365.66
0.8901,0.1099	-2390.58
0.9396,0.0604	-2357.28
0.8953,0.1047	-2416.14
0.9175,0.0825	-2383.34
0.9481,0.0519	-2359.92
0.9250,0.0750	-2365.95
0.8974,0.1026	-2401.18
0.9521,0.0479	-2374.97
0.8680,0.1320	-2405.30
0.9200,0.0800	-2395.59
0.9580,0.0420	-2335.34
0.9282,0.0718	-2386.26
0.8868,0.1132	-2403.08
0.9482,0.0518	-2359.92
0.8759,0.1241	-2412.93
0.8954,0.1046	-2375.35
0.9565,0.0435	-2357.16
0.9284,0.0716	-2368.33
0.8394,0.1606	-2412.08
0.9482,0.0518	-2345.39
0.8726,0.1274	-2397.47
0.8928,0.1072	-2390.47
0.9589,0.0411	-2350.99
0.9416,0.0584	-2373.87
0.8496,0.1504	-2421.86
0.9418,0.0582	-2365.53
0.8838,0.1162	-2394.95
0.8981,0.1019	-2381.62
0.9652,0.0348	-2334.64
0.9430,0.0570	-2362.75
0.8336,0.1664	-2422.19
0.9372,0.0628	-2365.52
0.8962,0.1038	-2381.74
0.8985,0.1015	-2385.95
0.9618,0.0382	-2334.94
0.9431,0.0569	-2357.13
0.8726,0.1274	-2403.25
0.9300,0.0700	-2368.29
0.8869,0.1131	-2390.73
0.8807,0.1193	-2403.09
0.9572,0.0428	-2335.44
0.9490,0.0510	-2365.78
0.8662,0.1338	-2392.29
0.9465,0.0535	-2357.04
0.9102,0.0898	-2376.42
0.8728,0.1272	-2405.17
0.9509,0.0491	-2357.01
0.9613,0.0387	-2351.05
0.8760,0.1240	-2399.25
0.9534,0.0466	-2348.00
0.9105,0.0895	-2374.08
0.8483,0.1517	-2409.82
0.9504,0.0496	-2365.87
0.9565,0.0435	-2350.98
0.9008,0.0992	-2407.93
0.9643,0.0357	-2347.90
0.9149,0.0851	-2395.21
0.8585,0.1415	-2447.18
0.9487,0.0513	-2359.93
0.9506,0.0494	-2354.05
0.9065,0.0935	-2390.26
0.9616,0.0384	-2341.40
0.9236,0.0764	-2380.99
0.8768,0.1232	-2393.33
0.9418,0.0582	-2357.18
0.9486,0.0514	-2348.27
0.9067,0.0933	-2385.72
0.9580,0.0420	-2347.86
0.9329,0.0671	-2360.34
0.8616,0.1384	-2401.90
0.9390,0.0610	-2379.18
0.9583,0.0417	-2372.93
0.8950,0.1050	-2379.68
0.9675,0.0325	-2334.47
0.9433,0.0567	-2354.31
0.8639,0.1361	-2398.06
0.9284,0.0716	-2388.84
0.9657,0.0343	-2351.29
0.9042,0.0958	-2390.26
0.9545,0.0455	-2326.66
0.9481,0.0519	-2354.11
0.8902,0.1098	-2401.03
0.9402,0.0598	-2346.23
0.9643,0.0357	-2347.90
0.9005,0.0995	-2385.88
0.9443,0.0557	-2354.26
0.9498,0.0502	-2354.07
0.8742,0.1258	-2393.51
0.9366,0.0634	-2346.68
0.9640,0.0360	-2347.89
0.9011,0.0989	-2388.06
0.9438,0.0562	-2354.29
0.9641,0.0359	-2338.02
0.8648,0.1352	-2412.84
0.9444,0.0556	-2368.42
0.9645,0.0355	-2344.60
0.8731,0.1269	-2397.44
0.9507,0.0493	-2354.05
0.9646,0.0354	-2341.30
0.8830,0.1170	-2403.07
0.9447,0.0553	-2359.92
0.9618,0.0382	-2367.19
0.8906,0.1094	-2401.04
0.9439,0.0561	-2348.64
0.9691,0.0309	-2358.49
0.9033,0.0967	-2394.73
0.9506,0.0494	-2348.14
0.9618,0.0382	-2331.71
0.8784,0.1216	-2387.30
0.9401,0.0599	-2346.24
0.9677,0.0323	-2337.86
0.8950,0.1050	-2394.68
0.9529,0.0471	-2342.01
0.9551,0.0449	-2350.99
0.8667,0.1333	-2407.21
0.9377,0.0623	-2376.36
0.9678,0.0322	-2337.86
0.8942,0.1058	-2390.42
0.9552,0.0448	-2360.17
0.9513,0.0487	-2348.10
0.8812,0.1188	-2403.08
0.9274,0.0726	-2360.73
0.9714,0.0286	-2330.76
0.8899,0.1101	-2421.92
0.9685,0.0315	-2327.57
0.9500,0.0500	-2351.12
0.8756,0.1244	-2412.92
0.9268,0.0732	-2368.39
0.9710,0.0290	-2348.34
0.9121,0.0879	-2381.00
0.9647,0.0353	-2334.68
0.9428,0.0572	-2351.54
0.8633,0.1367	-2416.54
0.9413,0.0587	-2354.43
0.9726,0.0274	-2327.11
0.9182,0.0818	-2378.51
0.9645,0.0355	-2344.60
0.9373,0.0627	-2362.82
0.8847,0.1153	-2417.34
0.9341,0.0659	-2360.27
0.9748,0.0252	-2326.92
0.9159,0.0841	-2364.23
0.9659,0.0341	-2344.62
0.9357,0.0643	-2378.93
0.8891,0.1109	-2394.78
0.9366,0.0634	-2373.61
0.9771,0.0229	-2326.76
0.9184,0.0816	-2373.67
0.9743,0.0257	-2334.23
0.9460,0.0540	-2354.19
0.8884,0.1116	-2376.13
0.9319,0.0681	-2357.78
0.9776,0.0224	-2338.06
0.9170,0.0830	-2371.32
0.9751,0.0249	-2348.91
0.9579,0.0421	-2363.48
0.8905,0.1095	-2401.04
0.9203,0.0797	-2373.60
0.9760,0.0240	-2334.24
0.8969,0.1031	-2401.16
0.9755,0.0245	-2323.18
0.9605,0.0395	-2338.26
0.9105,0.0895	-2388.00
0.9395,0.0605	-2340.82
0.9731,0.0269	-2330.65
0.8993,0.1007	-2390.30
0.9743,0.0257	-2348.78
0.9637,0.0363	-2351.16
0.9363,0.0637	-2354.78
0.9368,0.0632	-2352.05
0.9771,0.0229	-2330.51
0.9091,0.0909	-2364.96
0.9673,0.0327	-2337.87
0.9639,0.0361	-2338.03
0.9371,0.0629	-2370.92
0.9365,0.0635	-2362.84
0.9839,0.0161	-2322.53
0.9009,0.0991	-2377.03
0.9708,0.0292	-2334.31
0.9761,0.0239	-2323.12
0.9252,0.0748	-2363.43
0.9454,0.0546	-2388.43
0.9833,0.0167	-2326.63
0.8941,0.1059	-2388.29
0.9749,0.0251	-2330.57
0.9710,0.0290	-2316.75
0.9272,0.0728	-2363.29
0.9417,0.0583	-2365.53
0.9823,0.0177	-2318.58
0.8861,0.1139	-2386.67
0.9732,0.0268	-2334.24
0.9749,0.0251	-2341.55
0.9249,0.0751	-2378.51
0.9448,0.0552	-2379.80
0.9832,0.0168	-2318.48
0.8739,0.1261	-2391.60
0.9752,0.0248	-2341.58
0.9791,0.0209	-2315.13
0.9314,0.0686	-2347.40
0.9405,0.0595	-2368.28
0.9846,0.0154	-2334.99
0.8449,0.1551	-2418.51
0.9810,0.0190	-2330.56
0.9721,0.0279	-2327.17
0.9452,0.0548	-2362.76
0.9413,0.0587	-2359.97
0.9861,0.0139	-2326.78
0.8268,0.1732	-2424.04
0.9824,0.0176	-2334.66
0.9769,0.0231	-2319.28
0.9461,0.0539	-2359.91
0.9430,0.0570	-2357.13
0.9869,0.0131	-2305.24
0.8137,0.1863	-2429.20
0.9796,0.0204	-2322.77
0.9766,0.0234	-2330.52
0.9422,0.0578	-2348.79
0.9471,0.0529	-2357.03
0.9883,0.0117	-2309.29
0.7926,0.2074	-2454.74
0.9801,0.0199	-2326.63
0.9795,0.0205	-2326.65
0.9469,0.0531	-2374.32
0.9490,0.0510	-2365.78
0.9839,0.0161	-2314.31
0.8164,0.1836	-2441.01
0.9849,0.0151	-2326.69
0.9790,0.0210	-2322.82
0.9467,0.0533	-2380.05
0.9519,0.0481	-2357.02
0.9863,0.0137	-2335.35
0.8147,0.1853	-2439.52
0.9851,0.0149	-2314.13
0.9784,0.0216	-2326.69
0.9482,0.0518	-2359.92
0.9438,0.0562	-2357.11
0.9864,0.0136	-2343.95
0.8018,0.1982	-2432.70
0.9850,0.0150	-2322.51
0.9788,0.0212	-2330.51
0.9484,0.0516	-2354.10
0.9516,0.0484	-2360.00
0.9880,0.0120	-2313.76
0.8263,0.1737	-2417.83
0.9883,0.0117	-2313.73
0.9831,0.0169	-2338.81
0.9446,0.0554	-2351.41
0.9489,0.0511	-2348.24
0.9886,0.0114	-2313.69
0.8213,0.1787	-2427.36
0.9921,0.0079	-2318.30
0.9859,0.0141	-2318.26
0.9367,0.0633	-2370.92
0.9445,0.0555	-2365.59
0.9866,0.0134	-2309.63
0.8131,0.1869	-2432.17
0.9912,0.0088	-2313.50
0.9860,0.0140	-2314.01
0.9379,0.0621	-2362.80
0.9477,0.0523	-2359.92
0.9808,0.0192	-2322.68
0.7879,0.2121	-2440.21
0.9921,0.0079	-2303.80
0.9806,0.0194	-2326.62
0.9345,0.0655	-2365.56
0.9460,0.0540	-2354.18
0.9842,0.0158	-2334.93
0.8053,0.1947	-2439.60
0.9944,0.0056	-2313.52
0.9762,0.0238	-2352.83
0.9386,0.0614	-2381.88
0.9499,0.0501	-2351.13
0.9839,0.0161	-2322.53
0.8143,0.1857	-2438.04
0.9950,0.0050	-2308.29
0.9756,0.0244	-2323.17
0.9316,0.0684	-2376.09
0.9478,0.0522	-2359.92
0.9834,0.0166	-2338.88
0.8126,0.1874	-2426.32
0.9956,0.0044	-2313.68
0.9721,0.0279	-2330.72
0.9237,0.0763	-2361.04
0.9546,0.0454	-2354.04
0.9820,0.0180	-2318.61
0.7836,0.2164	-2437.86
0.9947,0.0053	-2308.32
0.9698,0.0302	-2351.69
0.9305,0.0695	-2381.25
0.9572,0.0428	-2350.98
0.9827,0.0173	-2326.62
0.7803,0.2197	-2460.91
0.9940,0.0060	-2308.39
0.9642,0.0358	-2354.48
0.9183,0.0817	-2380.93
0.9593,0.0407	-2338.36
0.9815,0.0185	-2326.61
0.8016,0.1984	-2442.48
0.9918,0.0082	-2327.85
0.9696,0.0304	-2355.14
0.9195,0.0805	-2402.86
0.9536,0.0464	-2341.94
0.9809,0.0191	-2334.50
0.8160,0.1840	-2430.58
0.9911,0.0089	-2308.79
0.9730,0.0270	-2341.42
0.9389,0.0611	-2360.05
0.9448,0.0552	-2351.40
0.9796,0.0204	-2326.65
0.8275,0.1725	-2424.01
0.9900,0.0100	-2313.57
0.9748,0.0252	-2334.23
0.9402,0.0598	-2348.99
0.9483,0.0517	-2351.20
0.9753,0.0247	-2319.53
0.8436,0.1564	-2416.86
0.9924,0.0076	-2313.46
0.9665,0.0335	-2331.18
0.9387,0.0613	-2398.25
0.9479,0.0521	-2359.92
0.9670,0.0330	-2331.13
0.8465,0.1535	-2423.59
0.9933,0.0067	-2313.47
0.9719,0.0281	-2327.18
0.9312,0.0688	-2368.26
0.9453,0.0547	-2354.22
0.9752,0.0248	-2326.89
0.8275,0.1725	-2409.91
0.9940,0.0060	-2308.39
0.9686,0.0314	-2354.99
0.9307,0.0693	-2378.66
0.9349,0.0651	-2381.54
0.9715,0.0285	-2327.23
0.8220,0.1780	-2425.81
0.9952,0.0048	-2308.28
0.9586,0.0414	-2341.56
0.9295,0.0705	-2376.04
0.9341,0.0659	-2384.13
0.9707,0.0293	-2341.31
0.8151,0.1849	-2448.42
0.9942,0.0058	-2323.79
0.9739,0.0261	-2323.37
0.9289,0.0711	-2368.32
0.9224,0.0776	-2385.92
0.9703,0.0297	-2351.76
0.8221,0.1779	-2441.11
0.9940,0.0060	-2308.39
0.9689,0.0311	-2341.27
0.9398,0.0602	-2349.02
0.9341,0.0659	-2389.44
0.9658,0.0342	-2351.30
0.8235,0.1765	-2430.36
0.9939,0.0061	-2303.30
0.9774,0.0226	-2330.51
0.9480,0.0520	-2377.34
0.9374,0.0626	-2362.81
0.9726,0.0274	-2337.82
0.8414,0.1586	-2433.64
0.9955,0.0045	-2302.88
0.9819,0.0181	-2314.63
0.9479,0.0521	-2362.82
0.9420,0.0580	-2359.96
0.9799,0.0201	-2338.29
0.8328,0.1672	-2425.43
0.9955,0.0045	-2319.06
0.9814,0.0186	-2314.72
0.9450,0.0550	-2365.60
0.9573,0.0427	-2344.76
0.9823,0.0177	-2322.60
0.8145,0.1855	-2417.32
0.9951,0.0049	-2313.60
0.9774,0.0226	-2341.81
0.9435,0.0565	-2362.75
0.9569,0.0431	-2350.98
0.9818,0.0182	-2306.68
0.8275,0.1725	-2422.45
0.9949,0.0051	-2318.86
0.9784,0.0216	-2326.69
0.9389,0.0611	-2351.85
0.9541,0.0459	-2332.79
0.9753,0.0247	-2337.91
0.8091,0.1909	-2433.77
0.9953,0.0047	-2308.27
0.9816,0.0184	-2326.61
0.9518,0.0482	-2368.95
0.9580,0.0420	-2347.86
0.9742,0.0258	-2312.43
0.8112,0.1888	-2438.07
0.9947,0.0053	-2308.32
0.9807,0.0193	-2322.69
0.9498,0.0502	-2359.95
0.9533,0.0467	-2351.02
0.9765,0.0235	-2352.89
0.8351,0.1649	-2420.51
0.9958,0.0042	-2313.72
0.9807,0.0193	-2318.77
0.9593,0.0407	-2332.04
0.9580,0.0420	-2338.47
0.9790,0.0210	-2349.72
0.8469,0.1531	-2418.46
0.9955,0.0045	-2308.26
0.9736,0.0264	-2327.02
0.9507,0.0493	-2359.97
0.9472,0.0528	-2348.37
0.9745,0.0255	-2330.59
0.8318,0.1682	-2419.06
0.9942,0.0058	-2308.37
0.9727,0.0273	-2327.11
0.9453,0.0547	-2365.61
0.9566,0.0434	-2347.88
0.9776,0.0224	-2334.28
0.8262,0.1738	-2425.63
0.9924,0.0076	-2308.59
0.9676,0.0324	-2341.26
0.9314,0.0686	-2365.65
0.9632,0.0368	-2351.13
0.9825,0.0175	-2314.54
0.8301,0.1699	-2438.19
0.9931,0.0069	-2308.49
0.9727,0.0273	-2341.40
0.9380,0.0620	-2379.10
0.9598,0.0402	-2341.49
0.9793,0.0207	-2342.08
0.8082,0.1918	-2428.06
0.9943,0.0057	-2308.35
0.9705,0.0295	-2341.31
0.9295,0.0705	-2376.04
0.9584,0.0416	-2338.44
0.9800,0.0200	-2338.31
0.7871,0.2129	-2441.55
0.9942,0.0058	-2303.22
0.9697,0.0303	-2344.75
0.9205,0.0795	-2378.49
0.9665,0.0335	-2361.44
0.9780,0.0220	-2334.30
0.7989,0.2011	-2423.21
0.9958,0.0042	-2308.25
0.9641,0.0359	-2341.31
0.9163,0.0837	-2390.51
0.9596,0.0404	-2332.00
0.9788,0.0212	-2315.18
0.8362,0.1638	-2420.46
0.9959,0.0041	-2308.24
0.9677,0.0323	-2341.26
0.9073,0.0927	-2381.14
0.9606,0.0394	-2347.84
0.9824,0.0176	-2318.57
0.8555,0.1445	-2420.11
0.9954,0.0046	-2302.90
0.9680,0.0320	-2337.86
0.8975,0.1025	-2392.50
0.9618,0.0382	-2347.84
0.9767,0.0233	-2338.00
0.8619,0.1381	-2411.03
0.9956,0.0044	-2319.12
0.9583,0.0417	-2357.26
0.8845,0.1155	-2394.93
0.9653,0.0347	-2324.65
0.9771,0.0229	-2338.02
0.8780,0.1220	-2401.15
0.9962,0.0038	-2308.24
0.9614,0.0386	-2344.63
0.8872,0.1128	-2421.65
0.9607,0.0393	-2351.03
0.9776,0.0224	-2334.29
0.8740,0.1260	-2410.95
0.9963,0.0037	-2302.65
0.9716,0.0284	-2327.21
0.8870,0.1130	-2390.72
0.9632,0.0368	-2328.27
0.9783,0.0217	-2341.93
0.8972,0.1028	-2405.50
0.9951,0.0049	-2329.55
0.9673,0.0327	-2351.42
0.8697,0.1303	-2403.35
0.9597,0.0403	-2331.98
0.9794,0.0206	-2322.79
0.8867,0.1133	-2401.02
0.9959,0.0041	-2302.75
0.9617,0.0383	-2341.40
0.8657,0.1343	-2407.24
0.9661,0.0339	-2344.62
0.9728,0.0272	-2341.41
0.8878,0.1122	-2390.68
0.9968,0.0032	-2313.97
0.9572,0.0428	-2350.98
0.8694,0.1306	-2397.67
0.9677,0.0323	-2337.86
0.9761,0.0239	-2345.38
0.8782,0.1218	-2397.19
0.9966,0.0034	-2313.93
0.9627,0.0373	-2338.10
0.8792,0.1208	-2381.27
0.9702,0.0298	-2341.30
0.9743,0.0257	-2330.60
0.8662,0.1338	-2407.23
0.9963,0.0037	-2308.24
0.9628,0.0372	-2341.35
0.8733,0.1267	-2391.64
0.9723,0.0277	-2327.14
0.9743,0.0257	-2330.60
0.8938,0.1062	-2388.30
0.9966,0.0034	-2308.24
0.9577,0.0423	-2363.46
0.8636,0.1364	-2390.70
0.9766,0.0234	-2330.52
0.9710,0.0290	-2344.83
0.9000,0.1000	-2403.47
0.9964,0.0036	-2302.60
0.9658,0.0342	-2344.62
0.8548,0.1452	-2421.88
0.9789,0.0211	-2315.16
0.9687,0.0313	-2361.86
0.9084,0.0916	-2362.75
0.9963,0.0037	-2308.24
0.9691,0.0309	-2317.17
0.8387,0.1613	-2423.67
0.9783,0.0217	-2319.09
0.9689,0.0311	-2330.96
0.9073,0.0927	-2360.61
0.9969,0.0031	-2308.25
0.9698,0.0302	-2320.47
0.8307,0.1693	-2414.35
0.9781,0.0219	-2326.71
0.9726,0.0274	-2334.25
0.8980,0.1020	-2381.62
0.9961,0.0039	-2313.79
0.9639,0.0361	-2341.32
0.8374,0.1626	-2408.95
0.9778,0.0222	-2326.72
0.9748,0.0252	-2323.26
0.8970,0.1030	-2388.18
0.9939,0.0061	-2318.58
0.9650,0.0350	-2341.29
0.8392,0.1608	-2417.05
0.9804,0.0196	-2334.45
0.9740,0.0260	-2326.99
0.9009,0.0991	-2368.20
0.9922,0.0078	-2318.32
0.9685,0.0315	-2330.99
0.8410,0.1590	-2423.63
0.9834,0.0166	-2318.47
0.9749,0.0251	-2323.25
0.9011,0.0989	-2392.48
0.9931,0.0069	-2313.46
0.9684,0.0316	-2317.31
0.8377,0.1623	-2413.84
0.9855,0.0145	-2326.73
0.9708,0.0292	-2337.81
0.9024,0.0976	-2388.04
0.9930,0.0070	-2303.55
0.9720,0.0280	-2341.36
0.8309,0.1691	-2420.70
0.9831,0.0169	-2326.62
0.9762,0.0238	-2341.67
0.9011,0.0989	-2401.32
0.9926,0.0074	-2328.14
0.9623,0.0377	-2351.09
0.8687,0.1313	-2397.72
0.9793,0.0207	-2334.37
0.9809,0.0191	-2334.49
0.9026,0.0974	-2383.58
0.9932,0.0068	-2318.45
0.9679,0.0321	-2344.67
0.8697,0.1303	-2399.55
0.9800,0.0200	-2330.53
0.9835,0.0165	-2322.55
0.8947,0.1053	-2413.94
0.9915,0.0085	-2323.00
0.9635,0.0365	-2360.97
0.8693,0.1307	-2405.26
0.9793,0.0207	-2315.08
0.9809,0.0191	-2314.80
0.8876,0.1124	-2382.42
0.9912,0.0088	-2308.78
0.9651,0.0349	-2337.97
0.8729,0.1271	-2399.39
0.9777,0.0223	-2341.85
0.9815,0.0185	-2330.58
0.8645,0.1355	-2401.72
0.9893,0.0107	-2322.69
0.9723,0.0277	-2330.71
0.8520,0.1480	-2423.61
0.9775,0.0225	-2341.82
0.9754,0.0246	-2334.23
0.8568,0.1432	-2418.33
0.9869,0.0131	-2313.89
0.9763,0.0237	-2319.38
0.8688,0.1312	-2392.04
0.9805,0.0195	-2318.79
0.9787,0.0213	-2326.68
0.8823,0.1177	-2403.07
0.9824,0.0176	-2322.59
0.9818,0.0182	-2330.60
0.8486,0.1514	-2397.73
0.9793,0.0207	-2311.24
0.9755,0.0245	-2337.92
0.8922,0.1078	-2407.40
0.9791,0.0209	-2334.36
0.9829,0.0171	-2314.46
0.8643,0.1357	-2414.69
0.9793,0.0207	-2349.80
0.9818,0.0182	-2334.59
0.8924,0.1076	-2386.25
0.9847,0.0153	-2318.35
0.9788,0.0212	-2334.34
0.8593,0.1407	-2418.34
0.9831,0.0169	-2330.68
0.9854,0.0146	-2335.14
0.8762,0.1238	-2409.03
0.9836,0.0164	-2318.45
0.9756,0.0244	-2326.86
0.8708,0.1292	-2407.12
0.9884,0.0116	-2327.05
0.9896,0.0104	-2318.16
0.8486,0.1514	-2425.31
0.9842,0.0158	-2326.66
0.9774,0.0226	-2315.45
0.8827,0.1173	-2419.22
0.9856,0.0144	-2322.51
0.9920,0.0080	-2323.11
0.8479,0.1521	-2404.69
0.9849,0.0151	-2330.87
0.9727,0.0273	-2341.40
0.8876,0.1124	-2390.69
0.9812,0.0188	-2322.66
0.9883,0.0117	-2313.73
0.8350,0.1650	-2409.16
0.9864,0.0136	-2322.52
0.9683,0.0317	-2344.69
0.8887,0.1113	-2392.71
0.9827,0.0173	-2318.54
0.9899,0.0101	-2309.00
0.8029,0.1971	-2436.85
0.9889,0.0111	-2313.67
0.9616,0.0384	-2347.84
0.8980,0.1020	-2381.62
0.9838,0.0162	-2322.54
0.9921,0.0079	-2308.63
0.7966,0.2034	-2435.74
0.9873,0.0127	-2322.55
0.9565,0.0435	-2350.98
0.9064,0.0936	-2397.07
0.9869,0.0131	-2309.56
0.9934,0.0066	-2313.47
0.7642,0.2358	-2452.43
0.9867,0.0133	-2318.22
0.9636,0.0364	-2338.05
0.9059,0.0941	-2390.26
0.9878,0.0122	-2318.18
0.9920,0.0080	-2303.82
0.7481,0.2519	-2468.50
0.9881,0.0119	-2313.74
0.9653,0.0347	-2327.98
0.9196,0.0804	-2376.06
0.9862,0.0138	-2309.71
0.9908,0.0092	-2322.87
0.7746,0.2254	-2452.13
0.9908,0.0092	-2318.20
0.9655,0.0345	-2334.62
0.9406,0.0594	-2354.47
0.9849,0.0151	-2335.04
0.9932,0.0068	-2313.46
0.7830,0.2170	-2440.47
0.9908,0.0092	-2308.84
0.9525,0.0475	-2339.05
0.9519,0.0481	-2365.98
0.9887,0.0113	-2336.06
0.9940,0.0060	-2303.29
0.7840,0.2160	-2442.99
0.9890,0.0110	-2309.16
0.9424,0.0576	-2354.36
0.9532,0.0468	-2351.02
0.9904,0.0096	-2318.18
0.9950,0.0050	-2308.30
0.7796,0.2204	-2435.63
0.9864,0.0136	-2309.66
0.9501,0.0499	-2357.01
0.9522,0.0478	-2360.02
0.9894,0.0106	-2313.62
0.9956,0.0044	-2313.67
0.7763,0.2237	-2460.80
0.9861,0.0139	-2309.74
0.9508,0.0492	-2324.44
0.9550,0.0450	-2350.99
0.9876,0.0124	-2318.18
0.9957,0.0043	-2308.25
0.7986,0.2014	-2442.53
0.9857,0.0143	-2314.04
0.9607,0.0393	-2344.64
0.9480,0.0520	-2339.60
0.9863,0.0137	-2318.24
0.9957,0.0043	-2302.80
0.7945,0.2055	-2449.38
0.9880,0.0120	-2322.58
0.9684,0.0316	-2361.79
0.9466,0.0534	-2359.91
0.9862,0.0138	-2305.43
0.9954,0.0046	-2308.27
0.7939,0.2061	-2426.45
0.9885,0.0115	-2313.71
0.9749,0.0251	-2334.23
0.9370,0.0630	-2368.22
0.9860,0.0140	-2314.00
0.9964,0.0036	-2302.63
0.7964,0.2036	-2427.56
0.9903,0.0097	-2313.55
0.9788,0.0212	-2319.01
0.9366,0.0634	-2370.91
0.9880,0.0120	-2309.35
0.9975,0.0025	-2320.26
0.8364,0.1636	-2413.93
0.9905,0.0095	-2327.48
0.9716,0.0284	-2341.35
0.9220,0.0780	-2363.67
0.9901,0.0099	-2308.96
0.9981,0.0019	-2308.42
0.8108,0.1892	-2435.17
0.9894,0.0106	-2318.16
0.9721,0.0279	-2337.82
0.9183,0.0817	-2383.35
0.9926,0.0074	-2313.46
0.9982,0.0018	-2302.11
0.8390,0.1610	-2418.71
0.9923,0.0077	-2308.60
0.9742,0.0258	-2334.23
0.9140,0.0860	-2371.51
0.9913,0.0087	-2318.23
0.9981,0.0019	-2314.65
0.8445,0.1555	-2415.13
0.9925,0.0075	-2313.46
0.9772,0.0228	-2322.99
0.9297,0.0703	-2355.38
0.9906,0.0094	-2318.19
0.9975,0.0025	-2308.30
0.8477,0.1523	-2411.57
0.9909,0.0091	-2308.82
0.9749,0.0251	-2341.55
0.9308,0.0692	-2357.87
0.9898,0.0102	-2322.74
0.9974,0.0026	-2302.35
0.8492,0.1508	-2418.41
0.9881,0.0119	-2313.75
0.9786,0.0214	-2330.51
0.9396,0.0604	-2362.77
0.9895,0.0105	-2331.81
0.9973,0.0027	-2308.28
0.8642,0.1358	-2399.89
0.9897,0.0103	-2313.60
0.9745,0.0255	-2337.88
0.9406,0.0594	-2357.23
0.9888,0.0112	-2313.68
0.9969,0.0031	-2302.48
0.8989,0.1011	-2392.49
0.9866,0.0134	-2318.23
0.9643,0.0357	-2367.67
0.9469,0.0531	-2359.91
0.9889,0.0111	-2313.67
0.9957,0.0043	-2302.81
0.9140,0.0860	-2402.24
0.9838,0.0162	-2318.43
0.9639,0.0361	-2341.32
0.9485,0.0515	-2362.84
0.9910,0.0090	-2322.91
0.9950,0.0050	-2334.74
0.9037,0.0963	-2388.02
0.9847,0.0153	-2335.01
0.9610,0.0390	-2341.43
0.9445,0.0555	-2357.08
0.9919,0.0081	-2313.47
0.9948,0.0052	-2303.06
0.8952,0.1048	-2381.81
0.9842,0.0158	-2318.39
0.9593,0.0407	-2351.00
0.9433,0.0567	-2359.93
0.9925,0.0075	-2318.35
0.9961,0.0039	-2308.24
0.8901,0.1099	-2390.57
0.9853,0.0147	-2318.31
0.9604,0.0396	-2347.84
0.9472,0.0528	-2359.91
0.9923,0.0077	-2308.61
0.9960,0.0040	-2308.24
0.8937,0.1063	-2401.08
0.9883,0.0117	-2313.72
0.9644,0.0356	-2364.39
0.9546,0.0454	-2326.63
0.9927,0.0073	-2303.65
0.9961,0.0039	-2302.71
0.9040,0.0960	-2374.56
0.9897,0.0103	-2318.16
0.9744,0.0256	-2337.87
0.9592,0.0408	-2360.47
0.9913,0.0087	-2318.23
0.9961,0.0039	-2308.24
0.8852,0.1148	-2386.73
0.9902,0.0098	-2313.56
0.9703,0.0297	-2334.33
0.9508,0.0492	-2362.94
0.9926,0.0074	-2313.46
0.9957,0.0043	-2319.15
0.8867,0.1133	-2388.68
0.9866,0.0134	-2318.23
0.9688,0.0312	-2334.40
0.9505,0.0495	-2362.92
0.9949,0.0051	-2303.04
0.9939,0.0061	-2308.40
0.8824,0.1176	-2407.10
0.9834,0.0166	-2314.39
0.9678,0.0322	-2337.86
0.9487,0.0513	-2359.93
0.9954,0.0046	-2302.90
0.9952,0.0048	-2308.28
0.8939,0.1061	-2413.88
0.9854,0.0146	-2318.30
0.9725,0.0275	-2337.82
0.9434,0.0566	-2340.23
0.9954,0.0046	-2308.27
0.9946,0.0054	-2308.32
0.8863,0.1137	-2409.24
