#isoforms=['ENSG00000211445.SE.0.A.up_ENSG00000211445.SE.0.A.SE1_ENSG00000211445.SE.0.A.dn','ENSG00000211445.SE.0.B.up_ENSG00000211445.SE.0.B.dn']	exon_lens=('ENSG00000211445.SE.0.A.up',136),('ENSG00000211445.SE.0.A.SE1',426),('ENSG00000211445.SE.0.A.dn',154),('ENSG00000211445.SE.0.B.up',179),('ENSG00000211445.SE.0.B.dn',154)	iters=5000	burn_in=500	lag=10	percent_accept=96.52	proposal_type=drift	counts=(0,0):26,(0,1):16,(1,0):1,(1,1):23	assigned_counts=0:2,1:38	chrom=chr5	strand=+	mRNA_starts=151020606,151020563	mRNA_ends=151025493,151025493
sampled_psi	log_score
0.0398,0.9602	-232.86
0.0614,0.9386	-237.13
0.0492,0.9508	-239.43
0.0393,0.9607	-232.83
0.0969,0.9031	-241.64
0.1096,0.8904	-242.40
0.0371,0.9629	-232.68
0.0643,0.9357	-234.62
0.0423,0.9577	-239.27
0.0449,0.9551	-236.26
0.0983,0.9017	-241.73
0.1186,0.8814	-244.97
0.0341,0.9659	-235.83
0.0685,0.9315	-237.55
0.0367,0.9633	-235.92
0.0468,0.9532	-236.35
0.0852,0.9148	-236.25
0.1063,0.8937	-242.20
0.0470,0.9530	-236.36
0.0699,0.9301	-237.64
0.0404,0.9596	-232.90
0.0422,0.9578	-236.14
0.1035,0.8965	-244.19
0.1200,0.8800	-243.05
0.0462,0.9538	-239.35
0.0695,0.9305	-237.62
0.0489,0.9511	-239.42
0.0368,0.9632	-235.93
0.0881,0.9119	-241.15
0.0946,0.9054	-239.26
0.0515,0.9485	-236.59
0.0657,0.9343	-250.66
0.0421,0.9579	-233.01
0.0319,0.9681	-235.77
0.0684,0.9316	-237.54
0.0579,0.9421	-236.93
0.0499,0.9501	-242.40
0.0629,0.9371	-234.51
0.0400,0.9600	-236.05
0.0325,0.9675	-232.39
0.0778,0.9222	-238.13
0.0541,0.9459	-233.86
0.0548,0.9452	-236.76
0.0574,0.9426	-236.91
0.0407,0.9593	-236.08
0.0383,0.9617	-239.21
0.0725,0.9275	-235.25
0.0508,0.9492	-236.55
0.0475,0.9525	-233.39
0.0451,0.9549	-245.43
0.0284,0.9716	-235.68
0.0397,0.9603	-239.22
0.0646,0.9354	-237.32
0.0585,0.9415	-242.52
0.0437,0.9563	-236.21
0.0526,0.9474	-236.64
0.0311,0.9689	-232.30
0.0328,0.9672	-232.41
0.0563,0.9437	-236.84
0.0544,0.9456	-233.88
0.0345,0.9655	-232.51
0.0424,0.9576	-236.15
0.0249,0.9751	-235.62
0.0407,0.9593	-236.08
0.0651,0.9349	-237.35
0.0518,0.9482	-239.51
0.0327,0.9673	-235.79
0.0363,0.9637	-235.91
0.0200,0.9800	-231.72
0.0321,0.9679	-242.58
0.0725,0.9275	-235.25
0.0436,0.9564	-239.29
0.0354,0.9646	-232.57
0.0351,0.9649	-232.55
0.0133,0.9867	-231.51
0.0423,0.9577	-233.03
0.0670,0.9330	-240.09
0.0379,0.9621	-232.73
0.0322,0.9678	-232.37
0.0320,0.9680	-239.18
0.0104,0.9896	-231.49
0.0398,0.9602	-236.04
0.0556,0.9444	-236.80
0.0269,0.9731	-232.06
0.0340,0.9660	-232.49
0.0327,0.9673	-232.40
0.0085,0.9915	-231.51
0.0406,0.9594	-236.07
0.0554,0.9446	-236.79
0.0304,0.9696	-235.72
0.0324,0.9676	-235.78
0.0319,0.9681	-232.35
0.0091,0.9909	-231.50
0.0375,0.9625	-232.71
0.0499,0.9501	-236.50
0.0252,0.9748	-231.97
0.0340,0.9660	-239.18
0.0290,0.9710	-232.18
0.0092,0.9908	-236.18
0.0373,0.9627	-232.69
0.0498,0.9502	-239.45
0.0247,0.9753	-231.95
0.0316,0.9684	-232.33
0.0339,0.9661	-232.47
0.0119,0.9881	-231.49
0.0393,0.9607	-232.83
0.0507,0.9493	-239.48
0.0323,0.9677	-235.78
0.0394,0.9606	-239.22
0.0363,0.9637	-239.19
0.0114,0.9886	-231.49
0.0337,0.9663	-232.46
0.0536,0.9464	-236.69
0.0231,0.9769	-231.86
0.0373,0.9627	-235.94
0.0392,0.9608	-232.82
0.0113,0.9887	-231.49
0.0288,0.9712	-235.69
0.0499,0.9501	-233.56
0.0223,0.9777	-235.61
0.0248,0.9752	-231.95
0.0476,0.9524	-233.39
0.0125,0.9875	-231.50
0.0278,0.9722	-235.67
0.0558,0.9442	-236.82
0.0247,0.9753	-235.62
0.0241,0.9759	-231.92
0.0438,0.9562	-242.38
0.0095,0.9905	-231.50
0.0269,0.9731	-239.24
0.0438,0.9562	-236.21
0.0212,0.9788	-235.61
0.0226,0.9774	-235.61
0.0485,0.9515	-233.46
0.0085,0.9915	-231.52
0.0239,0.9761	-231.91
0.0388,0.9612	-242.42
0.0286,0.9714	-235.68
0.0294,0.9706	-232.20
0.0408,0.9592	-232.92
0.0115,0.9885	-231.49
0.0286,0.9714	-232.16
0.0355,0.9645	-232.58
0.0225,0.9775	-243.15
0.0323,0.9677	-239.18
0.0289,0.9711	-235.69
0.0130,0.9870	-231.51
0.0348,0.9652	-242.50
0.0323,0.9677	-235.78
0.0209,0.9791	-231.76
0.0338,0.9662	-232.47
0.0290,0.9710	-235.69
0.0128,0.9872	-231.50
0.0297,0.9703	-235.71
0.0313,0.9687	-232.31
0.0182,0.9818	-231.65
0.0369,0.9631	-239.19
0.0283,0.9717	-235.68
0.0188,0.9812	-231.68
0.0225,0.9775	-231.83
0.0284,0.9716	-232.15
0.0146,0.9854	-231.54
0.0324,0.9676	-235.78
0.0199,0.9801	-231.72
0.0191,0.9809	-235.62
0.0214,0.9786	-239.43
0.0294,0.9706	-232.21
0.0185,0.9815	-231.66
0.0349,0.9651	-232.54
0.0175,0.9825	-231.62
0.0191,0.9809	-231.68
0.0202,0.9798	-235.61
0.0313,0.9687	-235.75
0.0204,0.9796	-231.74
0.0352,0.9648	-232.56
0.0156,0.9844	-231.57
0.0184,0.9816	-231.66
0.0172,0.9828	-231.61
0.0370,0.9630	-235.93
0.0187,0.9813	-231.67
0.0422,0.9578	-233.02
0.0174,0.9826	-231.62
0.0150,0.9850	-235.73
0.0145,0.9855	-231.54
0.0327,0.9673	-232.40
0.0142,0.9858	-231.53
0.0430,0.9570	-236.18
0.0198,0.9802	-231.71
0.0132,0.9868	-231.51
0.0173,0.9827	-239.70
0.0322,0.9678	-235.78
0.0115,0.9885	-235.95
0.0542,0.9458	-239.59
0.0179,0.9821	-231.64
0.0132,0.9868	-231.51
0.0168,0.9832	-231.60
0.0425,0.9575	-236.15
0.0112,0.9888	-231.49
0.0495,0.9505	-242.39
0.0184,0.9816	-231.66
0.0108,0.9892	-231.49
0.0175,0.9825	-235.65
0.0419,0.9581	-236.13
0.0129,0.9871	-231.51
0.0385,0.9615	-232.77
0.0158,0.9842	-231.57
0.0105,0.9895	-231.49
0.0207,0.9793	-231.75
0.0476,0.9524	-233.39
0.0129,0.9871	-240.19
0.0458,0.9542	-236.30
0.0166,0.9834	-231.60
0.0099,0.9901	-231.49
0.0297,0.9703	-235.71
0.0438,0.9562	-236.21
0.0131,0.9869	-231.51
0.0441,0.9559	-239.30
0.0120,0.9880	-231.49
0.0082,0.9918	-231.52
0.0226,0.9774	-235.61
0.0427,0.9573	-236.16
0.0127,0.9873	-235.86
0.0437,0.9563	-233.12
0.0111,0.9889	-231.49
0.0094,0.9906	-231.50
0.0225,0.9775	-235.61
0.0569,0.9431	-236.88
0.0094,0.9906	-231.50
0.0394,0.9606	-232.83
0.0123,0.9877	-231.50
0.0125,0.9875	-240.24
0.0221,0.9779	-235.61
0.0501,0.9499	-236.51
0.0102,0.9898	-231.49
0.0321,0.9679	-235.77
0.0132,0.9868	-235.83
0.0156,0.9844	-231.57
0.0233,0.9767	-235.61
0.0538,0.9462	-236.71
0.0108,0.9892	-236.00
0.0335,0.9665	-232.45
0.0141,0.9859	-231.53
0.0187,0.9813	-235.63
0.0199,0.9801	-231.72
0.0483,0.9517	-236.42
0.0089,0.9911	-231.51
0.0382,0.9618	-239.20
0.0161,0.9839	-231.58
0.0216,0.9784	-231.79
0.0229,0.9771	-231.86
0.0636,0.9364	-237.26
0.0094,0.9906	-231.50
0.0521,0.9479	-233.72
0.0149,0.9851	-231.55
0.0214,0.9786	-231.79
0.0253,0.9747	-235.63
0.0550,0.9450	-236.77
0.0084,0.9916	-231.52
0.0496,0.9504	-236.49
0.0149,0.9851	-235.74
0.0214,0.9786	-231.78
0.0289,0.9711	-232.18
0.0509,0.9491	-233.63
0.0100,0.9900	-231.49
0.0430,0.9570	-242.38
0.0115,0.9885	-235.94
0.0163,0.9837	-239.79
0.0335,0.9665	-235.81
0.0780,0.9220	-243.09
0.0104,0.9896	-231.49
0.0451,0.9549	-239.32
0.0101,0.9899	-231.49
0.0135,0.9865	-231.52
0.0507,0.9493	-236.54
0.0857,0.9143	-243.39
0.0095,0.9905	-231.50
0.0545,0.9455	-242.45
0.0105,0.9895	-231.49
0.0159,0.9841	-231.57
0.0616,0.9384	-239.87
0.0895,0.9105	-238.91
0.0090,0.9910	-231.50
0.0537,0.9463	-236.70
0.0114,0.9886	-231.49
0.0114,0.9886	-231.49
0.0609,0.9391	-239.84
0.1041,0.8959	-239.91
0.0089,0.9911	-231.51
0.0501,0.9499	-233.57
0.0101,0.9899	-231.49
0.0108,0.9892	-231.49
0.0566,0.9434	-239.67
0.0809,0.9191	-235.91
0.0087,0.9913	-231.51
0.0574,0.9426	-236.90
0.0099,0.9901	-231.49
0.0103,0.9897	-231.49
0.0406,0.9594	-236.07
0.0666,0.9334	-237.44
0.0096,0.9904	-245.42
0.0659,0.9341	-240.05
0.0079,0.9921	-231.53
0.0131,0.9869	-231.51
0.0331,0.9669	-232.43
0.0458,0.9542	-239.34
0.0102,0.9898	-236.07
0.0695,0.9305	-235.02
0.0070,0.9930	-231.57
0.0147,0.9853	-231.54
0.0315,0.9685	-232.33
0.0459,0.9541	-245.41
0.0096,0.9904	-231.50
0.0532,0.9468	-239.55
0.0070,0.9930	-231.57
0.0166,0.9834	-235.68
0.0274,0.9726	-232.09
0.0495,0.9505	-236.49
0.0074,0.9926	-231.55
0.0619,0.9381	-237.16
0.0065,0.9935	-231.60
0.0160,0.9840	-231.58
0.0235,0.9765	-235.61
0.0451,0.9549	-236.27
0.0055,0.9945	-231.67
0.0629,0.9371	-239.92
0.0065,0.9935	-231.60
0.0195,0.9805	-231.70
0.0242,0.9758	-231.92
0.0481,0.9519	-239.40
0.0049,0.9951	-231.73
0.0671,0.9329	-245.36
0.0055,0.9945	-236.88
0.0200,0.9800	-231.72
0.0226,0.9774	-231.84
0.0457,0.9543	-236.30
0.0042,0.9958	-231.82
0.0693,0.9307	-240.20
0.0059,0.9941	-231.64
0.0201,0.9799	-231.73
0.0269,0.9731	-235.65
0.0424,0.9576	-236.15
0.0037,0.9963	-231.90
0.0674,0.9326	-247.99
0.0051,0.9949	-231.71
0.0213,0.9787	-239.43
0.0325,0.9675	-235.78
0.0402,0.9598	-236.06
0.0033,0.9967	-231.97
0.0589,0.9411	-236.99
0.0043,0.9957	-231.81
0.0264,0.9736	-232.03
0.0414,0.9586	-232.97
0.0377,0.9623	-242.44
0.0032,0.9968	-232.00
0.0672,0.9328	-240.10
0.0045,0.9955	-231.78
0.0306,0.9694	-232.27
0.0369,0.9631	-235.93
0.0306,0.9694	-235.73
0.0033,0.9967	-231.98
0.0745,0.9255	-240.44
0.0043,0.9957	-231.81
0.0215,0.9785	-231.79
0.0253,0.9747	-239.28
0.0292,0.9708	-232.19
0.0036,0.9964	-231.92
0.0621,0.9379	-242.60
0.0036,0.9964	-231.92
0.0224,0.9776	-231.83
0.0330,0.9670	-239.18
0.0241,0.9759	-231.91
0.0047,0.9953	-237.10
0.0654,0.9346	-242.68
0.0032,0.9968	-232.01
0.0173,0.9827	-231.62
0.0289,0.9711	-232.18
0.0253,0.9747	-231.98
0.0047,0.9953	-231.76
0.0636,0.9364	-237.26
0.0026,0.9974	-232.16
0.0142,0.9858	-235.77
0.0304,0.9696	-235.73
0.0318,0.9682	-232.35
0.0054,0.9946	-231.69
0.0837,0.9163	-238.52
0.0028,0.9972	-232.10
0.0196,0.9804	-231.70
0.0323,0.9677	-235.78
0.0343,0.9657	-232.50
0.0060,0.9940	-231.64
0.0741,0.9259	-235.37
0.0031,0.9969	-232.03
0.0227,0.9773	-231.84
0.0251,0.9749	-235.63
0.0309,0.9691	-232.29
0.0052,0.9948	-231.70
0.0947,0.9053	-239.26
0.0028,0.9972	-232.10
0.0190,0.9810	-235.63
0.0267,0.9733	-232.05
0.0284,0.9716	-242.75
0.0046,0.9954	-231.77
0.0930,0.9070	-245.98
0.0031,0.9969	-232.03
0.0138,0.9862	-231.52
0.0209,0.9791	-235.61
0.0211,0.9789	-231.77
0.0053,0.9947	-236.92
0.1080,0.8920	-248.64
0.0032,0.9968	-232.00
0.0132,0.9868	-231.51
0.0234,0.9766	-235.61
0.0212,0.9788	-235.61
0.0061,0.9939	-231.62
0.1007,0.8993	-237.48
0.0032,0.9968	-232.00
0.0154,0.9846	-231.56
0.0279,0.9721	-232.12
0.0209,0.9791	-231.76
0.0053,0.9947	-231.69
0.1031,0.8969	-237.69
0.0033,0.9967	-231.98
0.0163,0.9837	-231.59
0.0259,0.9741	-235.64
0.0215,0.9785	-235.61
0.0049,0.9951	-231.73
0.0866,0.9134	-241.07
0.0037,0.9963	-231.89
0.0124,0.9876	-231.50
0.0229,0.9771	-231.86
0.0234,0.9766	-231.88
0.0042,0.9958	-231.82
0.0622,0.9378	-237.18
0.0033,0.9967	-231.99
0.0130,0.9870	-235.84
0.0281,0.9719	-235.67
0.0249,0.9751	-231.96
0.0034,0.9966	-231.96
0.0504,0.9496	-239.47
0.0026,0.9974	-232.16
0.0127,0.9873	-231.50
0.0254,0.9746	-235.63
0.0266,0.9734	-232.05
0.0036,0.9964	-231.92
0.0390,0.9610	-242.42
0.0029,0.9971	-232.07
0.0152,0.9848	-235.73
0.0278,0.9722	-235.67
0.0282,0.9718	-232.13
0.0029,0.9971	-232.06
0.0454,0.9546	-236.28
0.0027,0.9973	-232.13
0.0174,0.9826	-235.66
0.0250,0.9750	-235.63
0.0187,0.9813	-231.67
0.0027,0.9973	-232.13
0.0425,0.9575	-236.15
0.0027,0.9973	-232.13
0.0183,0.9817	-231.65
0.0359,0.9641	-235.89
0.0277,0.9723	-239.22
0.0028,0.9972	-232.10
0.0307,0.9693	-239.19
0.0032,0.9968	-237.73
0.0205,0.9795	-235.61
0.0342,0.9658	-239.18
0.0288,0.9712	-235.69
0.0032,0.9968	-232.01
0.0393,0.9607	-232.82
0.0032,0.9968	-232.01
0.0169,0.9831	-235.67
0.0318,0.9682	-232.34
0.0244,0.9756	-231.93
0.0026,0.9974	-232.14
0.0359,0.9641	-232.60
0.0042,0.9958	-231.82
0.0171,0.9829	-231.61
0.0249,0.9751	-231.95
0.0256,0.9744	-231.99
0.0025,0.9975	-232.18
0.0281,0.9719	-232.13
0.0055,0.9945	-231.67
0.0162,0.9838	-235.69
0.0250,0.9750	-235.63
0.0355,0.9645	-232.58
0.0034,0.9966	-231.97
0.0297,0.9703	-232.22
0.0065,0.9935	-231.60
0.0161,0.9839	-231.58
0.0238,0.9762	-235.61
0.0270,0.9730	-235.65
0.0032,0.9968	-232.00
0.0318,0.9682	-232.35
0.0050,0.9950	-231.72
0.0172,0.9828	-239.70
0.0289,0.9711	-232.18
0.0286,0.9714	-232.16
0.0033,0.9967	-231.98
0.0348,0.9652	-235.86
0.0049,0.9951	-237.06
0.0201,0.9799	-231.73
0.0409,0.9591	-239.24
0.0341,0.9659	-232.49
0.0043,0.9957	-231.81
0.0362,0.9638	-239.19
0.0060,0.9940	-231.63
0.0179,0.9821	-231.64
0.0395,0.9605	-232.83
0.0339,0.9661	-232.48
0.0057,0.9943	-231.65
0.0309,0.9691	-235.74
0.0058,0.9942	-231.65
0.0220,0.9780	-235.61
0.0345,0.9655	-232.51
0.0266,0.9734	-235.65
0.0069,0.9931	-236.54
0.0235,0.9765	-235.61
0.0055,0.9945	-231.67
0.0180,0.9820	-231.64
0.0278,0.9722	-235.67
0.0264,0.9736	-235.64
0.0058,0.9942	-236.79
0.0230,0.9770	-235.61
0.0064,0.9936	-231.60
0.0179,0.9821	-235.65
0.0266,0.9734	-232.05
0.0251,0.9749	-231.97
0.0059,0.9941	-231.64
0.0272,0.9728	-232.08
0.0077,0.9923	-231.54
0.0166,0.9834	-239.76
0.0194,0.9806	-231.70
0.0215,0.9785	-231.79
0.0070,0.9930	-231.57
0.0252,0.9748	-231.97
0.0082,0.9918	-231.52
0.0199,0.9801	-231.72
0.0158,0.9842	-235.70
0.0194,0.9806	-231.70
0.0078,0.9922	-231.54
0.0240,0.9760	-231.91
0.0094,0.9906	-231.50
0.0206,0.9794	-231.75
0.0145,0.9855	-231.54
0.0199,0.9801	-231.72
0.0078,0.9922	-231.54
0.0334,0.9666	-232.44
0.0088,0.9912	-231.51
0.0236,0.9764	-231.89
0.0160,0.9840	-231.58
0.0217,0.9783	-235.61
0.0090,0.9910	-231.50
0.0238,0.9762	-235.61
0.0109,0.9891	-231.49
0.0213,0.9787	-235.61
0.0149,0.9851	-231.55
0.0192,0.9808	-235.62
0.0075,0.9925	-231.55
0.0235,0.9765	-231.89
0.0109,0.9891	-231.49
0.0240,0.9760	-231.91
0.0138,0.9862	-231.52
0.0242,0.9758	-235.62
0.0065,0.9935	-231.60
0.0200,0.9800	-231.73
0.0113,0.9887	-231.49
0.0286,0.9714	-232.16
0.0124,0.9876	-231.50
0.0255,0.9745	-239.27
0.0057,0.9943	-231.66
0.0227,0.9773	-235.61
0.0095,0.9905	-231.50
0.0352,0.9648	-235.87
0.0134,0.9866	-235.81
0.0267,0.9733	-232.05
0.0051,0.9949	-236.98
0.0239,0.9761	-231.91
0.0086,0.9914	-231.51
0.0388,0.9612	-232.79
0.0145,0.9855	-235.76
0.0248,0.9752	-231.95
0.0042,0.9958	-231.82
0.0290,0.9710	-232.18
0.0100,0.9900	-231.49
0.0286,0.9714	-232.16
0.0125,0.9875	-231.50
0.0253,0.9747	-231.98
0.0046,0.9954	-231.76
0.0283,0.9717	-232.14
0.0091,0.9909	-231.50
0.0254,0.9746	-239.28
0.0111,0.9889	-231.49
0.0250,0.9750	-235.63
0.0051,0.9949	-231.72
0.0270,0.9730	-235.65
0.0094,0.9906	-231.50
0.0233,0.9767	-235.61
0.0110,0.9890	-231.49
0.0279,0.9721	-239.22
0.0049,0.9951	-231.73
0.0278,0.9722	-235.67
0.0080,0.9920	-231.53
0.0226,0.9774	-231.84
0.0107,0.9893	-231.49
0.0315,0.9685	-232.33
0.0041,0.9959	-231.83
0.0260,0.9740	-232.02
0.0064,0.9936	-231.60
0.0216,0.9784	-231.79
0.0088,0.9912	-231.51
0.0431,0.9569	-233.08
0.0041,0.9959	-231.84
0.0337,0.9663	-232.47
0.0083,0.9917	-231.52
0.0291,0.9709	-235.70
0.0063,0.9937	-231.61
0.0540,0.9460	-233.85
0.0033,0.9967	-231.97
0.0390,0.9610	-242.42
0.0082,0.9918	-231.52
0.0243,0.9757	-231.93
0.0077,0.9923	-231.54
0.0674,0.9326	-237.49
0.0027,0.9973	-232.11
0.0352,0.9648	-232.56
0.0066,0.9934	-231.59
0.0225,0.9775	-235.61
0.0083,0.9917	-231.52
0.0618,0.9382	-239.87
0.0032,0.9968	-232.00
0.0357,0.9643	-232.59
0.0076,0.9924	-231.54
0.0221,0.9779	-231.82
0.0099,0.9901	-231.49
0.0702,0.9298	-237.65
0.0031,0.9969	-232.03
0.0270,0.9730	-232.07
0.0089,0.9911	-231.51
0.0226,0.9774	-231.84
0.0072,0.9928	-231.56
0.0644,0.9356	-239.98
0.0038,0.9962	-231.89
0.0294,0.9706	-235.70
0.0092,0.9908	-236.18
0.0264,0.9736	-235.64
0.0090,0.9910	-231.51
0.0636,0.9364	-234.57
0.0037,0.9963	-231.91
0.0356,0.9644	-232.58
0.0085,0.9915	-231.52
0.0208,0.9792	-239.46
0.0109,0.9891	-231.49
0.0598,0.9402	-248.06
0.0034,0.9966	-237.63
0.0279,0.9721	-235.67
0.0066,0.9934	-236.60
0.0193,0.9807	-235.62
0.0086,0.9914	-231.51
0.0696,0.9304	-237.62
0.0030,0.9970	-232.05
0.0245,0.9755	-235.62
0.0057,0.9943	-236.82
0.0223,0.9777	-235.61
0.0088,0.9912	-231.51
0.0578,0.9422	-234.14
0.0030,0.9970	-232.04
0.0216,0.9784	-231.79
0.0080,0.9920	-231.53
0.0158,0.9842	-231.57
0.0078,0.9922	-231.54
0.0718,0.9282	-235.19
0.0025,0.9975	-232.18
0.0157,0.9843	-231.57
0.0096,0.9904	-231.50
0.0144,0.9856	-235.76
0.0088,0.9912	-231.51
0.0747,0.9253	-245.49
0.0027,0.9973	-232.14
0.0198,0.9802	-231.72
0.0098,0.9902	-240.71
0.0110,0.9890	-231.49
0.0092,0.9908	-231.50
0.0780,0.9220	-238.15
0.0029,0.9971	-232.07
0.0185,0.9815	-243.57
0.0076,0.9924	-236.41
0.0086,0.9914	-231.51
0.0097,0.9903	-231.49
0.0750,0.9250	-248.01
0.0036,0.9964	-231.92
0.0204,0.9796	-231.74
0.0054,0.9946	-236.90
0.0095,0.9905	-231.50
0.0075,0.9925	-231.55
0.0761,0.9239	-240.52
0.0038,0.9962	-231.88
0.0167,0.9833	-231.60
0.0072,0.9928	-231.56
0.0093,0.9907	-236.17
0.0067,0.9933	-231.58
0.0688,0.9312	-237.57
0.0041,0.9959	-231.84
0.0157,0.9843	-231.57
0.0092,0.9908	-231.50
0.0124,0.9876	-235.88
0.0065,0.9935	-236.63
0.0716,0.9284	-237.74
0.0045,0.9955	-237.18
0.0140,0.9860	-231.53
0.0074,0.9926	-231.55
0.0103,0.9897	-236.06
0.0075,0.9925	-236.43
0.0663,0.9337	-237.42
0.0043,0.9957	-231.81
0.0133,0.9867	-231.51
0.0073,0.9927	-231.56
0.0099,0.9901	-231.49
0.0084,0.9916	-231.52
0.0558,0.9442	-242.47
0.0037,0.9963	-231.89
0.0150,0.9850	-231.55
0.0069,0.9931	-236.55
0.0105,0.9895	-231.49
0.0088,0.9912	-231.51
0.0677,0.9323	-240.13
0.0044,0.9956	-231.80
0.0137,0.9863	-235.80
0.0059,0.9941	-231.64
0.0102,0.9898	-231.49
0.0104,0.9896	-236.05
0.0604,0.9396	-239.82
0.0046,0.9954	-231.77
0.0141,0.9859	-235.78
0.0061,0.9939	-231.62
0.0086,0.9914	-231.51
0.0129,0.9871	-235.84
0.0670,0.9330	-237.46
0.0047,0.9953	-231.75
0.0150,0.9850	-231.55
0.0057,0.9943	-231.66
0.0117,0.9883	-231.49
0.0105,0.9895	-231.49
0.0781,0.9219	-240.62
0.0037,0.9963	-231.90
0.0151,0.9849	-235.73
0.0053,0.9947	-231.69
0.0121,0.9879	-231.50
0.0116,0.9884	-231.49
0.0738,0.9262	-237.88
0.0043,0.9957	-231.81
0.0162,0.9838	-231.58
0.0054,0.9946	-231.68
0.0124,0.9876	-231.50
0.0090,0.9910	-231.50
0.0639,0.9361	-239.96
0.0035,0.9965	-231.94
0.0192,0.9808	-235.62
0.0074,0.9926	-231.55
0.0112,0.9888	-235.97
0.0079,0.9921	-231.53
0.0721,0.9279	-242.88
0.0028,0.9972	-232.10
0.0209,0.9791	-235.61
0.0085,0.9915	-231.52
0.0109,0.9891	-231.49
0.0067,0.9933	-231.59
0.0796,0.9204	-238.25
0.0027,0.9973	-232.13
0.0172,0.9828	-231.62
0.0089,0.9911	-231.51
0.0162,0.9838	-231.58
0.0062,0.9938	-236.70
0.0709,0.9291	-240.27
0.0016,0.9984	-232.56
0.0182,0.9818	-231.65
0.0084,0.9916	-231.52
0.0121,0.9879	-235.90
0.0061,0.9939	-231.63
0.0689,0.9311	-237.57
0.0012,0.9988	-232.78
0.0183,0.9817	-235.64
0.0112,0.9888	-235.97
0.0093,0.9907	-231.50
0.0049,0.9951	-231.73
0.0718,0.9282	-245.43
0.0011,0.9989	-232.84
0.0203,0.9797	-235.61
0.0107,0.9893	-236.02
0.0086,0.9914	-231.51
0.0047,0.9953	-231.76
0.0635,0.9365	-237.25
0.0016,0.9984	-232.53
0.0228,0.9772	-235.61
0.0092,0.9908	-231.50
0.0076,0.9924	-231.54
0.0061,0.9939	-231.62
0.0537,0.9463	-236.70
0.0015,0.9985	-232.58
0.0228,0.9772	-231.85
0.0087,0.9913	-231.51
0.0070,0.9930	-231.57
0.0072,0.9928	-231.56
0.0564,0.9436	-236.85
0.0011,0.9989	-232.87
0.0219,0.9781	-231.81
0.0104,0.9896	-236.04
0.0060,0.9940	-231.63
0.0073,0.9927	-231.56
0.0587,0.9413	-236.98
0.0014,0.9986	-232.63
0.0251,0.9749	-231.96
0.0104,0.9896	-231.49
0.0060,0.9940	-231.63
0.0061,0.9939	-231.63
0.0574,0.9426	-242.50
0.0014,0.9986	-232.66
0.0211,0.9789	-235.61
0.0089,0.9911	-231.51
0.0061,0.9939	-231.62
0.0060,0.9940	-231.63
0.0729,0.9271	-237.83
0.0013,0.9987	-232.72
0.0216,0.9784	-231.79
0.0085,0.9915	-236.28
0.0060,0.9940	-231.63
0.0063,0.9937	-231.61
0.0749,0.9251	-240.46
0.0012,0.9988	-232.82
0.0268,0.9732	-232.06
0.0082,0.9918	-231.52
0.0062,0.9938	-231.62
0.0059,0.9941	-231.64
0.0789,0.9211	-238.20
0.0010,0.9990	-233.00
0.0286,0.9714	-232.16
0.0102,0.9898	-236.06
0.0059,0.9941	-231.64
0.0050,0.9950	-231.72
0.0776,0.9224	-238.12
0.0010,0.9990	-232.94
0.0283,0.9717	-232.14
0.0122,0.9878	-231.50
0.0070,0.9930	-231.57
0.0045,0.9955	-237.19
0.0754,0.9246	-240.49
0.0008,0.9992	-233.21
0.0333,0.9667	-235.81
0.0111,0.9889	-231.49
0.0053,0.9947	-231.69
0.0054,0.9946	-236.88
0.0717,0.9283	-245.43
0.0006,0.9994	-233.37
0.0308,0.9692	-235.74
0.0097,0.9903	-231.49
0.0055,0.9945	-231.68
0.0052,0.9948	-231.70
0.0733,0.9267	-242.92
0.0007,0.9993	-233.25
0.0350,0.9650	-232.54
0.0075,0.9925	-231.55
0.0050,0.9950	-231.72
0.0057,0.9943	-231.66
0.0716,0.9284	-242.87
0.0008,0.9992	-233.15
0.0365,0.9635	-232.64
0.0063,0.9937	-231.61
0.0053,0.9947	-236.93
0.0076,0.9924	-231.54
0.0772,0.9228	-238.09
0.0008,0.9992	-233.22
0.0388,0.9612	-239.21
0.0059,0.9941	-231.64
0.0050,0.9950	-231.72
0.0063,0.9937	-231.61
0.0644,0.9356	-237.31
0.0008,0.9992	-233.19
0.0380,0.9620	-232.74
0.0063,0.9937	-231.61
0.0079,0.9921	-236.36
0.0060,0.9940	-231.63
0.0702,0.9298	-237.65
0.0010,0.9990	-232.93
0.0373,0.9627	-232.69
