#isoforms=['ENSG00000186575.SE.4.A.up_ENSG00000186575.SE.4.A.SE1_ENSG00000186575.SE.4.A.dn','ENSG00000186575.SE.4.B.up_ENSG00000186575.SE.4.B.dn']	exon_lens=('ENSG00000186575.SE.4.A.up',128),('ENSG00000186575.SE.4.A.SE1',163),('ENSG00000186575.SE.4.A.dn',3847),('ENSG00000186575.SE.4.B.up',128),('ENSG00000186575.SE.4.B.dn',194)	iters=5000	burn_in=500	lag=10	percent_accept=96.34	proposal_type=drift	counts=(0,0):155,(1,0):2627,(1,1):119	assigned_counts=0:2741,1:5	chrom=chr22	strand=+	mRNA_starts=29678196,29678196	mRNA_ends=29698598,29694945
sampled_psi	log_score
0.9608,0.0392	-22859.36
0.9801,0.0199	-22839.60
0.9514,0.0486	-22860.11
0.9927,0.0073	-22842.15
0.9594,0.0406	-22862.61
0.9651,0.0349	-22859.11
0.9662,0.0338	-22865.77
0.9793,0.0207	-22847.48
0.9532,0.0468	-22856.93
0.9941,0.0059	-22842.10
0.9524,0.0476	-22854.02
0.9661,0.0339	-22869.11
0.9610,0.0390	-22862.55
0.9815,0.0185	-22847.29
0.9476,0.0524	-22874.96
0.9924,0.0076	-22837.29
0.9516,0.0484	-22860.10
0.9654,0.0346	-22859.09
0.9707,0.0293	-22848.42
0.9796,0.0204	-22851.32
0.9652,0.0348	-22869.07
0.9936,0.0064	-22837.06
0.9547,0.0453	-22862.86
0.9639,0.0361	-22849.31
0.9729,0.0271	-22858.89
0.9728,0.0272	-22858.90
0.9733,0.0267	-22848.10
0.9938,0.0062	-22842.11
0.9628,0.0372	-22855.98
0.9611,0.0389	-22849.71
0.9705,0.0295	-22855.43
0.9760,0.0240	-22855.22
0.9792,0.0208	-22843.63
0.9939,0.0061	-22842.11
0.9661,0.0339	-22852.37
0.9546,0.0454	-22850.69
0.9679,0.0321	-22852.18
0.9737,0.0263	-22862.50
0.9839,0.0161	-22851.23
0.9944,0.0056	-22836.93
0.9700,0.0300	-22848.51
0.9528,0.0472	-22865.99
0.9681,0.0319	-22848.74
0.9753,0.0247	-22847.88
0.9834,0.0166	-22847.14
0.9948,0.0052	-22847.36
0.9763,0.0237	-22851.49
0.9487,0.0513	-22874.96
0.9690,0.0310	-22858.96
0.9710,0.0290	-22848.38
0.9770,0.0230	-22851.45
0.9946,0.0054	-22836.88
0.9758,0.0242	-22855.22
0.9396,0.0604	-22869.61
0.9675,0.0325	-22852.22
0.9673,0.0327	-22855.63
0.9810,0.0190	-22851.27
0.9950,0.0050	-22836.82
0.9780,0.0220	-22855.19
0.9344,0.0656	-22859.36
0.9707,0.0293	-22844.91
0.9673,0.0327	-22848.86
0.9865,0.0135	-22842.69
0.9945,0.0055	-22836.90
0.9736,0.0264	-22873.32
0.9426,0.0574	-22875.02
0.9717,0.0283	-22851.83
0.9633,0.0367	-22855.93
0.9871,0.0129	-22846.96
0.9944,0.0056	-22836.92
0.9731,0.0269	-22851.71
0.9411,0.0589	-22869.51
0.9728,0.0272	-22848.17
0.9620,0.0380	-22849.59
0.9849,0.0151	-22851.23
0.9950,0.0050	-22842.10
0.9767,0.0233	-22847.73
0.9361,0.0639	-22872.54
0.9795,0.0205	-22847.45
0.9499,0.0501	-22886.73
0.9869,0.0131	-22838.33
0.9952,0.0048	-22852.76
0.9784,0.0216	-22859.00
0.9242,0.0758	-22865.89
0.9815,0.0185	-22851.26
0.9542,0.0458	-22865.93
0.9870,0.0130	-22842.64
0.9946,0.0054	-22842.10
0.9753,0.0247	-22844.21
0.9300,0.0700	-22878.11
0.9819,0.0181	-22855.24
0.9609,0.0391	-22881.76
0.9864,0.0136	-22851.27
0.9932,0.0068	-22837.15
0.9773,0.0227	-22847.67
0.9342,0.0658	-22870.00
0.9827,0.0173	-22847.20
0.9590,0.0410	-22846.88
0.9865,0.0135	-22842.69
0.9914,0.0086	-22842.23
0.9773,0.0227	-22840.15
0.9346,0.0654	-22854.01
0.9834,0.0166	-22851.23
0.9384,0.0616	-22875.13
0.9858,0.0142	-22855.49
0.9904,0.0096	-22842.30
0.9746,0.0254	-22844.30
0.9374,0.0626	-22869.76
0.9866,0.0134	-22842.68
0.9476,0.0524	-22851.80
0.9863,0.0137	-22842.71
0.9894,0.0106	-22837.86
0.9723,0.0277	-22858.90
0.9305,0.0695	-22875.49
0.9836,0.0164	-22851.23
0.9501,0.0499	-22860.23
0.9867,0.0133	-22838.36
0.9905,0.0095	-22837.64
0.9726,0.0274	-22855.33
0.9208,0.0792	-22873.69
0.9833,0.0167	-22847.15
0.9495,0.0505	-22874.96
0.9868,0.0132	-22838.34
0.9913,0.0087	-22846.97
0.9721,0.0279	-22855.35
0.9087,0.0913	-22874.93
0.9823,0.0177	-22851.24
0.9545,0.0455	-22847.65
0.9854,0.0146	-22847.03
0.9906,0.0094	-22837.62
0.9713,0.0287	-22848.35
0.9184,0.0816	-22878.76
0.9810,0.0190	-22851.27
0.9626,0.0374	-22865.74
0.9843,0.0157	-22842.95
0.9911,0.0089	-22837.54
0.9707,0.0293	-22848.42
0.9373,0.0627	-22858.94
0.9801,0.0199	-22855.20
0.9552,0.0448	-22859.77
0.9846,0.0154	-22847.07
0.9885,0.0115	-22846.93
0.9678,0.0322	-22852.19
0.9368,0.0632	-22872.50
0.9809,0.0191	-22859.15
0.9526,0.0474	-22857.00
0.9867,0.0133	-22842.67
0.9888,0.0112	-22842.45
0.9706,0.0294	-22851.93
0.9334,0.0666	-22875.34
0.9830,0.0170	-22843.11
0.9563,0.0437	-22862.77
0.9839,0.0161	-22847.11
0.9902,0.0098	-22837.71
0.9704,0.0296	-22851.94
0.9253,0.0747	-22868.27
0.9773,0.0227	-22858.96
0.9556,0.0444	-22868.95
0.9820,0.0180	-22847.24
0.9892,0.0108	-22846.92
0.9656,0.0344	-22849.08
0.9404,0.0596	-22858.52
0.9729,0.0271	-22840.99
0.9634,0.0366	-22859.20
0.9797,0.0203	-22847.44
0.9864,0.0136	-22855.55
0.9710,0.0290	-22848.38
0.9453,0.0547	-22877.82
0.9735,0.0265	-22855.29
0.9650,0.0350	-22859.11
0.9827,0.0173	-22839.12
0.9870,0.0130	-22846.96
0.9674,0.0326	-22859.01
0.9525,0.0475	-22851.01
0.9640,0.0360	-22869.03
0.9639,0.0361	-22846.03
0.9871,0.0129	-22838.29
0.9829,0.0171	-22843.12
0.9635,0.0365	-22855.92
0.9496,0.0504	-22869.09
0.9731,0.0269	-22848.13
0.9675,0.0325	-22852.22
0.9878,0.0122	-22838.14
0.9864,0.0136	-22838.41
0.9553,0.0447	-22856.70
0.9541,0.0459	-22853.80
0.9705,0.0295	-22858.92
0.9668,0.0332	-22865.78
0.9895,0.0105	-22851.48
0.9845,0.0155	-22842.93
0.9545,0.0455	-22865.92
0.9582,0.0418	-22859.54
0.9747,0.0253	-22866.20
0.9655,0.0345	-22859.09
0.9895,0.0105	-22837.83
0.9854,0.0146	-22847.03
0.9451,0.0549	-22863.59
0.9535,0.0465	-22865.96
0.9768,0.0232	-22847.72
0.9567,0.0433	-22856.56
0.9909,0.0091	-22837.57
0.9847,0.0153	-22838.74
0.9363,0.0637	-22864.46
0.9600,0.0400	-22849.87
0.9788,0.0212	-22843.69
0.9589,0.0411	-22862.64
0.9885,0.0115	-22838.02
0.9819,0.0181	-22851.25
0.9387,0.0613	-22861.48
0.9714,0.0286	-22855.38
0.9767,0.0233	-22844.00
0.9614,0.0386	-22868.96
0.9893,0.0107	-22842.40
0.9800,0.0200	-22855.20
0.9357,0.0643	-22864.52
0.9807,0.0193	-22843.43
0.9816,0.0184	-22839.32
0.9626,0.0374	-22849.50
0.9855,0.0145	-22847.02
0.9812,0.0188	-22843.35
0.9319,0.0681	-22859.72
0.9842,0.0158	-22842.96
0.9848,0.0152	-22855.40
0.9613,0.0387	-22849.69
0.9870,0.0130	-22838.30
0.9805,0.0195	-22847.37
0.9271,0.0729	-22868.06
0.9848,0.0152	-22838.71
0.9845,0.0155	-22851.23
0.9650,0.0350	-22842.54
0.9863,0.0137	-22851.27
0.9750,0.0250	-22855.24
0.9311,0.0689	-22870.25
0.9867,0.0133	-22842.67
0.9887,0.0113	-22837.99
0.9682,0.0318	-22852.15
0.9858,0.0142	-22838.53
0.9808,0.0192	-22851.28
0.9247,0.0753	-22868.34
0.9876,0.0124	-22842.56
0.9902,0.0098	-22842.32
0.9670,0.0330	-22855.65
0.9842,0.0158	-22842.96
0.9779,0.0221	-22843.82
0.9087,0.0913	-22868.03
0.9897,0.0103	-22842.36
0.9902,0.0098	-22842.32
0.9734,0.0266	-22840.90
0.9872,0.0128	-22842.62
0.9704,0.0296	-22844.96
0.9097,0.0903	-22877.13
0.9904,0.0096	-22837.67
0.9916,0.0084	-22842.21
0.9736,0.0264	-22862.50
0.9861,0.0139	-22842.73
0.9676,0.0324	-22855.61
0.9154,0.0846	-22883.74
0.9901,0.0099	-22846.93
0.9905,0.0095	-22851.59
0.9719,0.0281	-22855.36
0.9849,0.0151	-22838.70
0.9679,0.0321	-22855.59
0.9230,0.0770	-22871.01
0.9898,0.0102	-22837.78
0.9897,0.0103	-22837.80
0.9756,0.0244	-22847.85
0.9822,0.0178	-22847.23
0.9667,0.0333	-22852.31
0.9281,0.0719	-22885.87
0.9893,0.0107	-22837.86
0.9887,0.0113	-22846.93
0.9771,0.0229	-22858.95
0.9829,0.0171	-22847.18
0.9708,0.0292	-22851.91
0.9288,0.0712	-22867.88
0.9905,0.0095	-22842.29
0.9882,0.0118	-22842.51
0.9813,0.0187	-22847.30
0.9839,0.0161	-22851.23
0.9710,0.0290	-22848.39
0.9386,0.0614	-22858.77
0.9908,0.0092	-22837.59
0.9865,0.0135	-22842.69
0.9808,0.0192	-22847.34
0.9851,0.0149	-22842.86
0.9734,0.0266	-22840.90
0.9508,0.0492	-22863.13
0.9900,0.0100	-22837.74
0.9819,0.0181	-22847.26
0.9793,0.0207	-22851.33
0.9849,0.0151	-22838.70
0.9706,0.0294	-22855.42
0.9414,0.0586	-22861.16
0.9894,0.0106	-22842.39
0.9845,0.0155	-22847.08
0.9766,0.0234	-22855.20
0.9845,0.0155	-22842.93
0.9740,0.0260	-22855.27
0.9356,0.0644	-22864.54
0.9890,0.0110	-22837.92
0.9839,0.0161	-22843.00
0.9751,0.0249	-22844.24
0.9842,0.0158	-22847.10
0.9725,0.0275	-22844.63
0.9244,0.0756	-22870.87
0.9877,0.0123	-22842.56
0.9789,0.0211	-22851.35
0.9770,0.0230	-22847.70
0.9860,0.0140	-22847.00
0.9771,0.0229	-22843.94
0.9382,0.0618	-22856.10
0.9889,0.0111	-22855.91
0.9767,0.0233	-22851.47
0.9759,0.0241	-22844.11
0.9869,0.0131	-22846.96
0.9780,0.0220	-22840.00
0.9500,0.0500	-22860.25
0.9868,0.0132	-22846.97
0.9758,0.0242	-22862.61
0.9728,0.0272	-22851.74
0.9859,0.0141	-22838.51
0.9814,0.0186	-22839.37
0.9513,0.0487	-22857.15
0.9883,0.0117	-22842.49
0.9788,0.0212	-22855.19
0.9742,0.0258	-22844.37
0.9890,0.0110	-22842.43
0.9824,0.0176	-22851.24
0.9525,0.0475	-22851.01
0.9902,0.0098	-22837.70
0.9746,0.0254	-22862.55
0.9767,0.0233	-22855.20
0.9885,0.0115	-22842.48
0.9833,0.0167	-22847.15
0.9530,0.0470	-22862.97
0.9897,0.0103	-22846.93
0.9766,0.0234	-22851.47
0.9788,0.0212	-22843.68
0.9862,0.0138	-22846.99
0.9804,0.0196	-22843.46
0.9587,0.0413	-22846.92
0.9896,0.0104	-22842.37
0.9771,0.0229	-22840.19
0.9775,0.0225	-22847.65
0.9888,0.0112	-22846.93
0.9834,0.0166	-22855.31
0.9641,0.0359	-22849.29
0.9920,0.0080	-22842.19
0.9763,0.0237	-22858.93
0.9785,0.0215	-22859.00
0.9892,0.0108	-22842.41
0.9829,0.0171	-22847.18
0.9432,0.0568	-22866.58
0.9914,0.0086	-22851.72
0.9798,0.0202	-22855.19
0.9778,0.0222	-22840.05
0.9888,0.0112	-22851.41
0.9795,0.0205	-22859.05
0.9502,0.0498	-22863.17
0.9929,0.0071	-22842.14
0.9845,0.0155	-22842.93
0.9811,0.0189	-22851.27
0.9916,0.0084	-22837.43
0.9782,0.0218	-22851.39
0.9448,0.0552	-22860.78
0.9949,0.0051	-22842.10
0.9845,0.0155	-22838.77
0.9816,0.0184	-22847.28
0.9918,0.0082	-22842.20
0.9781,0.0219	-22847.59
0.9460,0.0540	-22863.51
0.9950,0.0050	-22847.39
0.9859,0.0141	-22847.00
0.9820,0.0180	-22851.24
0.9927,0.0073	-22842.15
0.9789,0.0211	-22843.68
0.9460,0.0540	-22854.92
0.9955,0.0045	-22842.12
0.9825,0.0175	-22855.26
0.9817,0.0183	-22843.29
0.9932,0.0068	-22837.15
0.9815,0.0185	-22851.26
0.9587,0.0413	-22868.93
0.9966,0.0034	-22842.19
0.9813,0.0187	-22855.22
0.9857,0.0143	-22847.01
0.9910,0.0090	-22846.96
0.9852,0.0148	-22847.04
0.9537,0.0463	-22847.80
0.9966,0.0034	-22842.20
0.9788,0.0212	-22843.69
0.9894,0.0106	-22842.39
0.9895,0.0105	-22842.38
0.9877,0.0123	-22842.56
0.9590,0.0410	-22853.18
0.9970,0.0030	-22836.44
0.9836,0.0164	-22847.13
0.9886,0.0114	-22837.99
0.9863,0.0137	-22846.99
0.9886,0.0114	-22838.00
0.9531,0.0469	-22865.98
0.9971,0.0029	-22842.27
0.9834,0.0166	-22838.98
0.9887,0.0113	-22837.98
0.9857,0.0143	-22847.01
0.9897,0.0103	-22846.93
0.9577,0.0423	-22868.93
0.9965,0.0035	-22836.54
0.9836,0.0164	-22855.32
0.9892,0.0108	-22855.96
0.9885,0.0115	-22842.48
0.9914,0.0086	-22842.23
0.9630,0.0370	-22869.00
0.9971,0.0029	-22836.42
0.9845,0.0155	-22847.08
0.9906,0.0094	-22846.94
0.9892,0.0108	-22842.40
0.9918,0.0082	-22837.41
0.9697,0.0303	-22845.08
0.9970,0.0030	-22842.25
0.9857,0.0143	-22851.25
0.9911,0.0089	-22837.53
0.9900,0.0100	-22846.93
0.9916,0.0084	-22842.21
0.9660,0.0340	-22849.03
0.9965,0.0035	-22836.54
0.9831,0.0169	-22855.29
0.9928,0.0072	-22837.21
0.9920,0.0080	-22847.01
0.9932,0.0068	-22847.11
0.9722,0.0278	-22841.12
0.9966,0.0034	-22836.51
0.9807,0.0193	-22855.21
0.9922,0.0078	-22837.33
0.9941,0.0059	-22842.10
0.9942,0.0058	-22842.10
0.9717,0.0283	-22865.98
0.9966,0.0034	-22836.51
0.9828,0.0172	-22863.36
0.9927,0.0073	-22837.25
0.9947,0.0053	-22836.87
0.9936,0.0064	-22847.16
0.9664,0.0336	-22852.33
0.9957,0.0043	-22836.67
0.9821,0.0179	-22843.23
0.9929,0.0071	-22842.14
0.9937,0.0063	-22837.05
0.9929,0.0071	-22837.20
0.9659,0.0341	-22862.42
0.9960,0.0040	-22836.63
0.9830,0.0170	-22839.05
0.9938,0.0062	-22837.03
0.9928,0.0072	-22852.00
0.9938,0.0062	-22837.04
0.9644,0.0356	-22855.84
0.9950,0.0050	-22836.80
0.9811,0.0189	-22851.27
0.9936,0.0064	-22837.08
0.9925,0.0075	-22851.92
0.9953,0.0047	-22836.75
0.9780,0.0220	-22843.80
0.9948,0.0052	-22836.84
0.9790,0.0210	-22839.82
0.9945,0.0055	-22836.90
0.9911,0.0089	-22846.96
0.9952,0.0048	-22836.77
0.9773,0.0227	-22851.43
0.9940,0.0060	-22837.00
0.9838,0.0162	-22838.90
0.9944,0.0056	-22836.93
0.9905,0.0095	-22842.29
0.9944,0.0056	-22836.92
0.9829,0.0171	-22843.13
0.9959,0.0041	-22842.13
0.9851,0.0149	-22863.82
0.9941,0.0059	-22836.97
0.9882,0.0118	-22838.08
0.9941,0.0059	-22836.97
0.9820,0.0180	-22855.25
0.9949,0.0051	-22836.83
0.9867,0.0133	-22846.97
0.9933,0.0067	-22842.13
0.9831,0.0169	-22855.29
0.9938,0.0062	-22842.11
0.9831,0.0169	-22843.11
0.9923,0.0077	-22837.32
0.9879,0.0121	-22846.94
0.9910,0.0090	-22837.55
0.9869,0.0131	-22855.61
0.9937,0.0063	-22837.05
0.9785,0.0215	-22851.37
0.9923,0.0077	-22842.17
0.9865,0.0135	-22846.98
0.9890,0.0110	-22837.93
0.9861,0.0139	-22847.00
0.9930,0.0070	-22837.19
0.9737,0.0263	-22848.06
0.9897,0.0103	-22846.93
0.9889,0.0111	-22842.43
0.9872,0.0128	-22842.61
0.9863,0.0137	-22855.54
0.9937,0.0063	-22847.17
0.9738,0.0262	-22851.66
0.9900,0.0100	-22851.52
0.9811,0.0189	-22847.32
0.9830,0.0170	-22847.18
0.9865,0.0135	-22846.98
0.9923,0.0077	-22837.31
0.9800,0.0200	-22847.41
0.9903,0.0097	-22837.68
0.9857,0.0143	-22838.55
0.9779,0.0221	-22851.40
0.9865,0.0135	-22842.69
0.9924,0.0076	-22842.16
0.9778,0.0222	-22855.19
0.9909,0.0091	-22842.27
0.9840,0.0160	-22842.99
0.9796,0.0204	-22862.94
0.9857,0.0143	-22842.78
0.9920,0.0080	-22842.19
0.9810,0.0190	-22839.44
0.9880,0.0120	-22842.52
0.9792,0.0208	-22843.63
0.9819,0.0181	-22855.24
0.9856,0.0144	-22855.47
0.9926,0.0074	-22842.16
0.9829,0.0171	-22847.18
0.9841,0.0159	-22855.35
0.9860,0.0140	-22842.75
0.9789,0.0211	-22847.51
0.9809,0.0191	-22851.27
0.9912,0.0088	-22837.52
0.9839,0.0161	-22855.34
0.9854,0.0146	-22842.81
0.9848,0.0152	-22842.89
0.9779,0.0221	-22851.40
0.9787,0.0213	-22843.71
0.9920,0.0080	-22847.01
0.9849,0.0151	-22851.23
0.9843,0.0157	-22847.09
0.9866,0.0134	-22846.98
0.9785,0.0215	-22847.55
0.9734,0.0266	-22855.29
0.9913,0.0087	-22837.49
0.9879,0.0121	-22846.94
0.9863,0.0137	-22838.43
0.9860,0.0140	-22847.00
0.9774,0.0226	-22855.19
0.9820,0.0180	-22847.25
0.9906,0.0094	-22837.63
0.9863,0.0137	-22846.99
0.9851,0.0149	-22847.04
0.9848,0.0152	-22855.40
0.9813,0.0187	-22847.30
0.9793,0.0207	-22855.19
0.9919,0.0081	-22837.38
0.9826,0.0174	-22839.14
0.9857,0.0143	-22842.78
0.9857,0.0143	-22847.01
0.9801,0.0199	-22843.51
0.9799,0.0201	-22843.53
0.9933,0.0067	-22842.12
0.9792,0.0208	-22847.48
0.9872,0.0128	-22846.96
0.9864,0.0136	-22855.55
0.9864,0.0136	-22846.98
0.9771,0.0229	-22847.69
0.9936,0.0064	-22842.11
0.9758,0.0242	-22851.52
0.9913,0.0087	-22846.97
0.9854,0.0146	-22851.24
0.9863,0.0137	-22842.71
0.9758,0.0242	-22844.12
0.9950,0.0050	-22836.81
0.9679,0.0321	-22862.40
0.9909,0.0091	-22837.57
0.9819,0.0181	-22843.26
0.9858,0.0142	-22855.49
0.9821,0.0179	-22843.23
0.9939,0.0061	-22847.20
0.9655,0.0345	-22849.10
0.9908,0.0092	-22842.27
0.9761,0.0239	-22855.21
0.9804,0.0196	-22855.20
0.9785,0.0215	-22855.19
0.9936,0.0064	-22837.07
0.9731,0.0269	-22855.31
0.9915,0.0085	-22846.98
0.9784,0.0216	-22851.37
0.9861,0.0139	-22847.00
0.9768,0.0232	-22851.46
0.9938,0.0062	-22837.04
0.9806,0.0194	-22847.36
0.9929,0.0071	-22847.08
0.9807,0.0193	-22847.35
0.9866,0.0134	-22838.37
0.9772,0.0228	-22855.19
0.9927,0.0073	-22842.15
0.9779,0.0221	-22851.40
0.9927,0.0073	-22842.15
0.9810,0.0190	-22859.16
0.9833,0.0167	-22843.07
0.9795,0.0205	-22855.19
0.9909,0.0091	-22837.57
0.9768,0.0232	-22855.20
0.9909,0.0091	-22837.58
0.9756,0.0244	-22840.47
0.9855,0.0145	-22851.24
0.9751,0.0249	-22840.56
0.9900,0.0100	-22842.33
0.9801,0.0199	-22851.30
0.9887,0.0113	-22842.46
0.9726,0.0274	-22866.03
0.9834,0.0166	-22843.07
0.9796,0.0204	-22855.19
0.9865,0.0135	-22842.69
0.9797,0.0203	-22851.32
0.9879,0.0121	-22846.94
0.9680,0.0320	-22845.36
0.9818,0.0182	-22847.26
0.9812,0.0188	-22843.35
0.9880,0.0120	-22846.94
0.9811,0.0189	-22843.37
0.9900,0.0100	-22842.33
0.9689,0.0311	-22848.65
0.9813,0.0187	-22855.22
0.9798,0.0202	-22855.19
0.9880,0.0120	-22855.76
0.9809,0.0191	-22847.33
0.9932,0.0068	-22837.14
0.9617,0.0383	-22849.63
0.9780,0.0220	-22840.01
0.9774,0.0226	-22843.89
0.9894,0.0106	-22837.84
0.9836,0.0164	-22851.23
0.9924,0.0076	-22847.04
0.9439,0.0561	-22866.52
0.9771,0.0229	-22851.44
0.9830,0.0170	-22851.23
0.9921,0.0079	-22842.18
0.9847,0.0153	-22842.90
0.9920,0.0080	-22842.19
0.9504,0.0496	-22866.11
0.9789,0.0211	-22843.67
0.9814,0.0186	-22847.29
0.9909,0.0091	-22846.95
0.9893,0.0107	-22842.40
0.9930,0.0070	-22837.17
0.9395,0.0605	-22864.12
0.9776,0.0224	-22851.41
0.9847,0.0153	-22851.23
0.9916,0.0084	-22842.21
0.9877,0.0123	-22846.94
0.9909,0.0091	-22842.26
0.9348,0.0652	-22872.61
0.9732,0.0268	-22844.53
0.9845,0.0155	-22851.23
0.9908,0.0092	-22842.27
0.9919,0.0081	-22847.00
0.9917,0.0083	-22846.99
0.9323,0.0677	-22872.77
0.9735,0.0265	-22858.89
0.9882,0.0118	-22842.50
0.9925,0.0075	-22837.28
0.9913,0.0087	-22837.50
0.9906,0.0094	-22842.28
0.9404,0.0596	-22877.83
0.9700,0.0300	-22862.41
0.9852,0.0148	-22851.24
0.9938,0.0062	-22837.03
0.9900,0.0100	-22842.34
0.9889,0.0111	-22842.43
0.9514,0.0486	-22872.01
0.9684,0.0316	-22845.29
0.9853,0.0147	-22842.83
0.9942,0.0058	-22836.95
0.9891,0.0109	-22851.44
0.9900,0.0100	-22856.11
0.9561,0.0439	-22865.86
0.9649,0.0351	-22859.12
0.9837,0.0163	-22847.13
0.9937,0.0063	-22842.11
0.9901,0.0099	-22842.33
0.9884,0.0116	-22842.49
0.9452,0.0548	-22863.58
0.9731,0.0269	-22851.72
0.9857,0.0143	-22851.25
0.9926,0.0074	-22842.15
0.9892,0.0108	-22842.41
0.9880,0.0120	-22838.11
0.9459,0.0541	-22854.94
0.9713,0.0287	-22841.29
0.9833,0.0167	-22847.15
0.9921,0.0079	-22837.35
0.9869,0.0131	-22851.29
0.9846,0.0154	-22855.39
0.9559,0.0441	-22856.64
0.9730,0.0270	-22851.72
0.9841,0.0159	-22842.98
0.9906,0.0094	-22846.94
0.9864,0.0136	-22846.98
0.9856,0.0144	-22842.80
0.9485,0.0515	-22863.31
0.9705,0.0295	-22858.92
0.9843,0.0157	-22847.09
0.9891,0.0109	-22846.92
0.9852,0.0148	-22847.04
0.9850,0.0150	-22838.68
0.9544,0.0456	-22856.80
0.9657,0.0343	-22855.74
0.9886,0.0114	-22842.47
0.9867,0.0133	-22855.58
0.9851,0.0149	-22842.86
0.9884,0.0116	-22846.93
0.9514,0.0486	-22857.14
0.9692,0.0308	-22848.61
0.9903,0.0097	-22842.31
0.9876,0.0124	-22838.19
0.9867,0.0133	-22842.67
0.9902,0.0098	-22837.70
0.9510,0.0490	-22872.01
0.9686,0.0314	-22845.26
0.9907,0.0093	-22842.28
0.9872,0.0128	-22838.26
0.9863,0.0137	-22855.54
0.9894,0.0106	-22842.39
0.9607,0.0393	-22859.36
0.9695,0.0305	-22858.95
0.9898,0.0102	-22837.79
0.9862,0.0138	-22842.72
0.9835,0.0165	-22847.14
0.9879,0.0121	-22846.94
0.9609,0.0391	-22856.15
0.9734,0.0266	-22848.09
0.9882,0.0118	-22842.51
0.9864,0.0136	-22842.70
0.9899,0.0101	-22846.93
0.9848,0.0152	-22838.72
0.9525,0.0475	-22866.00
0.9724,0.0276	-22848.21
0.9874,0.0126	-22851.31
0.9868,0.0132	-22838.35
0.9899,0.0101	-22851.52
0.9852,0.0148	-22838.64
0.9567,0.0433	-22862.75
0.9745,0.0255	-22844.32
0.9897,0.0103	-22842.36
0.9853,0.0147	-22847.03
0.9874,0.0126	-22842.59
0.9875,0.0125	-22842.58
0.9633,0.0367	-22855.93
0.9775,0.0225	-22840.10
0.9892,0.0108	-22842.41
0.9836,0.0164	-22847.13
0.9872,0.0128	-22838.27
0.9881,0.0119	-22842.51
0.9619,0.0381	-22849.59
0.9812,0.0188	-22855.22
0.9882,0.0118	-22838.08
0.9870,0.0130	-22842.64
0.9886,0.0114	-22838.00
0.9857,0.0143	-22842.78
0.9639,0.0361	-22862.46
0.9740,0.0260	-22848.02
0.9874,0.0126	-22838.23
0.9890,0.0110	-22842.42
0.9897,0.0103	-22846.93
0.9866,0.0134	-22842.67
0.9601,0.0399	-22862.58
0.9709,0.0291	-22855.41
0.9895,0.0105	-22851.48
0.9894,0.0106	-22846.93
0.9894,0.0106	-22851.46
0.9886,0.0114	-22855.84
0.9615,0.0385	-22859.31
0.9682,0.0318	-22855.57
0.9907,0.0093	-22837.61
0.9913,0.0087	-22837.50
0.9905,0.0095	-22837.64
0.9900,0.0100	-22842.33
0.9552,0.0448	-22865.89
0.9714,0.0286	-22855.38
0.9889,0.0111	-22842.44
0.9945,0.0055	-22836.90
0.9916,0.0084	-22837.45
0.9893,0.0107	-22837.87
0.9592,0.0408	-22859.46
0.9734,0.0266	-22844.49
0.9869,0.0131	-22846.97
0.9940,0.0060	-22842.10
0.9904,0.0096	-22837.67
0.9921,0.0079	-22842.18
0.9673,0.0327	-22848.85
0.9745,0.0255	-22858.90
0.9890,0.0110	-22846.93
0.9937,0.0063	-22842.11
0.9926,0.0074	-22842.15
0.9907,0.0093	-22842.28
0.9674,0.0326	-22848.84
0.9587,0.0413	-22859.50
0.9872,0.0128	-22855.65
0.9952,0.0048	-22842.11
0.9928,0.0072	-22837.22
0.9897,0.0103	-22846.93
0.9606,0.0394	-22856.18
0.9635,0.0365	-22862.46
0.9817,0.0183	-22843.29
0.9947,0.0053	-22836.86
0.9925,0.0075	-22842.16
