#isoforms=['ENSG00000101294.SE.1.A.up_ENSG00000101294.SE.1.A.SE1_ENSG00000101294.SE.1.A.dn','ENSG00000101294.SE.1.B.up_ENSG00000101294.SE.1.B.dn']	exon_lens=('ENSG00000101294.SE.1.A.up',99),('ENSG00000101294.SE.1.A.SE1',376),('ENSG00000101294.SE.1.A.dn',89),('ENSG00000101294.SE.1.B.up',99),('ENSG00000101294.SE.1.B.dn',89)	iters=5000	burn_in=500	lag=10	percent_accept=87.07	proposal_type=drift	counts=(0,0):270,(1,0):120,(1,1):162	assigned_counts=0:165,1:117	chrom=chr20	strand=+	mRNA_starts=31527484,31527484	mRNA_ends=31545035,31545035
sampled_psi	log_score
0.3679,0.6321	-1825.35
0.3494,0.6506	-1827.75
0.2828,0.7172	-1812.81
0.3332,0.6668	-1824.35
0.2977,0.7023	-1824.99
0.3284,0.6716	-1823.62
0.3537,0.6463	-1825.37
0.3713,0.6287	-1822.89
0.2879,0.7121	-1806.49
0.2924,0.7076	-1813.76
0.3204,0.6796	-1818.36
0.3022,0.6978	-1807.23
0.3430,0.6570	-1823.84
0.3376,0.6624	-1821.70
0.2767,0.7233	-1818.62
0.2994,0.7006	-1813.01
0.3448,0.6552	-1826.45
0.2981,0.7019	-1818.12
0.3204,0.6796	-1820.61
0.3145,0.6855	-1815.89
0.2786,0.7214	-1811.88
0.3234,0.6766	-1822.13
0.2843,0.7157	-1810.97
0.2651,0.7349	-1813.12
0.2898,0.7102	-1811.05
0.3151,0.6849	-1812.02
0.2740,0.7260	-1805.10
0.3355,0.6645	-1823.69
0.2700,0.7300	-1811.98
0.2601,0.7399	-1813.31
0.2869,0.7131	-1818.29
0.2886,0.7114	-1822.76
0.3017,0.6983	-1818.11
0.3265,0.6735	-1816.37
0.2624,0.7376	-1815.28
0.2875,0.7125	-1821.90
0.2799,0.7201	-1820.38
0.2584,0.7416	-1811.28
0.3057,0.6943	-1821.40
0.3695,0.6305	-1824.36
0.2672,0.7328	-1812.04
0.2953,0.7047	-1823.36
0.3163,0.6837	-1818.26
0.2677,0.7323	-1814.04
0.3445,0.6555	-1820.02
0.3415,0.6585	-1821.18
0.2475,0.7525	-1799.56
0.3280,0.6720	-1816.45
0.3101,0.6899	-1826.15
0.3286,0.6714	-1820.76
0.3040,0.6960	-1822.25
0.3378,0.6622	-1824.40
0.2450,0.7550	-1815.32
0.3601,0.6399	-1831.33
0.3365,0.6635	-1821.67
0.2668,0.7332	-1819.13
0.2951,0.7049	-1812.05
0.3327,0.6673	-1824.35
0.2672,0.7328	-1814.06
0.3226,0.6774	-1821.38
0.3384,0.6616	-1817.03
0.3128,0.6872	-1824.49
0.2923,0.7077	-1818.18
0.3400,0.6600	-1825.10
0.2682,0.7318	-1815.03
0.2764,0.7236	-1811.90
0.3152,0.6848	-1822.12
0.3218,0.6782	-1819.89
0.2984,0.7016	-1818.97
0.3527,0.6473	-1822.31
0.2778,0.7222	-1808.07
0.3181,0.6819	-1821.35
0.3115,0.6885	-1817.38
0.3170,0.6830	-1822.11
0.3111,0.6889	-1822.14
0.3202,0.6798	-1815.34
0.2969,0.7031	-1825.88
0.3166,0.6834	-1825.19
0.3408,0.6592	-1817.85
0.3022,0.6978	-1819.78
0.3556,0.6444	-1836.13
0.3457,0.6543	-1823.27
0.3008,0.6992	-1822.32
0.3021,0.6979	-1818.11
0.3006,0.6994	-1814.73
0.3118,0.6882	-1820.55
0.3866,0.6134	-1831.07
0.3225,0.6775	-1826.58
0.3166,0.6834	-1825.19
0.2986,0.7014	-1817.26
0.2967,0.7033	-1813.81
0.2770,0.7230	-1814.77
0.3664,0.6336	-1829.11
0.3098,0.6902	-1816.55
0.3157,0.6843	-1820.57
0.2721,0.7279	-1813.91
0.2764,0.7236	-1813.82
0.2358,0.7642	-1802.05
0.2671,0.7329	-1815.07
0.2681,0.7319	-1812.02
0.3395,0.6605	-1823.76
0.3062,0.6938	-1820.57
0.3233,0.6767	-1823.61
0.2529,0.7471	-1807.17
0.3259,0.6741	-1819.25
0.2498,0.7502	-1816.06
0.3246,0.6754	-1820.68
0.2649,0.7351	-1817.21
0.3214,0.6786	-1825.11
0.2996,0.7004	-1818.11
0.3649,0.6351	-1824.10
0.2756,0.7244	-1809.00
0.2920,0.7080	-1806.67
0.3178,0.6822	-1830.52
0.3072,0.6928	-1818.94
0.2764,0.7236	-1814.78
0.3668,0.6332	-1822.02
0.3133,0.6867	-1827.62
0.2681,0.7319	-1816.04
0.3474,0.6526	-1823.96
0.2846,0.7154	-1818.34
0.2628,0.7372	-1807.01
0.3398,0.6602	-1817.12
0.3156,0.6844	-1825.98
0.2605,0.7395	-1807.03
0.3743,0.6257	-1828.77
0.2931,0.7069	-1820.81
0.3018,0.6982	-1817.27
0.3096,0.6904	-1818.95
0.2951,0.7049	-1811.18
0.2863,0.7137	-1810.08
0.3592,0.6408	-1829.02
0.3048,0.6952	-1808.22
0.2833,0.7167	-1815.60
0.3110,0.6890	-1824.53
0.2886,0.7114	-1814.64
0.3033,0.6967	-1813.12
0.3432,0.6568	-1818.00
0.3003,0.6997	-1810.50
0.3245,0.6755	-1822.14
0.3159,0.6841	-1810.52
0.3155,0.6845	-1825.99
0.2808,0.7192	-1815.64
0.3736,0.6264	-1824.10
0.3186,0.6814	-1823.63
0.3450,0.6550	-1823.25
0.2984,0.7016	-1823.25
0.2953,0.7047	-1812.05
0.2460,0.7540	-1814.12
0.3549,0.6451	-1829.59
0.3281,0.6719	-1830.78
0.3044,0.6956	-1825.55
0.3527,0.6473	-1822.92
0.2809,0.7191	-1815.64
0.2104,0.7896	-1823.60
0.3185,0.6815	-1824.39
0.3642,0.6358	-1828.52
0.3223,0.6777	-1823.61
0.3131,0.6869	-1825.27
0.2842,0.7158	-1818.36
0.2298,0.7702	-1816.83
0.3397,0.6603	-1826.42
0.3087,0.6913	-1822.17
0.3393,0.6607	-1824.42
0.3406,0.6594	-1827.75
0.2884,0.7116	-1811.93
0.2937,0.7063	-1811.14
0.3371,0.6629	-1821.01
0.3236,0.6764	-1816.24
0.3559,0.6441	-1820.69
0.3343,0.6657	-1821.61
0.3273,0.6727	-1821.45
0.2773,0.7227	-1809.02
0.2947,0.7053	-1803.31
0.3153,0.6847	-1823.67
0.3782,0.6218	-1830.89
0.2582,0.7418	-1817.62
0.3687,0.6313	-1823.24
0.2771,0.7229	-1825.32
0.3078,0.6922	-1822.18
0.2721,0.7279	-1811.95
0.3580,0.6420	-1825.51
0.2605,0.7395	-1814.34
0.3082,0.6918	-1825.41
0.2943,0.7057	-1817.28
0.2823,0.7177	-1820.28
0.2589,0.7411	-1817.57
0.3632,0.6368	-1827.38
0.3186,0.6814	-1815.27
0.3440,0.6560	-1819.99
0.2904,0.7096	-1827.14
0.2642,0.7358	-1810.08
0.2560,0.7440	-1817.77
0.3147,0.6853	-1828.34
0.3045,0.6955	-1821.42
0.3909,0.6091	-1829.42
0.2852,0.7148	-1819.25
0.2431,0.7569	-1801.85
0.2868,0.7132	-1813.73
0.2855,0.7145	-1812.82
0.3011,0.6989	-1818.95
0.3810,0.6190	-1828.51
0.2768,0.7232	-1815.73
0.2495,0.7505	-1805.07
0.2875,0.7125	-1813.73
0.2436,0.7564	-1802.97
0.2881,0.7119	-1816.45
0.3440,0.6560	-1812.89
0.3352,0.6648	-1820.26
0.2290,0.7710	-1808.42
0.3055,0.6945	-1820.58
0.2257,0.7743	-1805.00
0.2795,0.7205	-1811.88
0.3677,0.6323	-1831.85
0.2973,0.7027	-1813.82
0.2871,0.7129	-1811.91
0.2800,0.7200	-1815.66
0.2375,0.7625	-1813.66
0.2786,0.7214	-1817.59
0.3649,0.6351	-1831.31
0.3146,0.6854	-1820.56
0.2768,0.7232	-1822.46
0.2576,0.7424	-1814.48
0.2299,0.7701	-1803.51
0.2507,0.7493	-1811.61
0.2971,0.7029	-1814.68
0.2784,0.7216	-1823.32
0.3301,0.6699	-1822.92
0.2605,0.7395	-1802.86
0.2680,0.7320	-1816.04
0.2852,0.7148	-1810.06
0.2815,0.7185	-1817.50
0.2974,0.7026	-1815.54
0.3645,0.6355	-1834.08
0.2945,0.7055	-1819.90
0.2643,0.7357	-1811.10
0.2726,0.7274	-1808.01
0.2919,0.7081	-1810.21
0.3543,0.6457	-1821.19
0.3718,0.6282	-1831.84
0.3123,0.6877	-1815.03
0.2979,0.7021	-1823.26
0.3373,0.6627	-1831.15
0.2896,0.7104	-1811.05
0.3218,0.6782	-1819.14
0.3455,0.6545	-1820.07
0.3031,0.6969	-1816.44
0.2860,0.7140	-1831.12
0.3464,0.6536	-1830.91
0.2618,0.7382	-1816.35
0.3117,0.6883	-1826.10
0.2971,0.7029	-1820.71
0.3015,0.6985	-1821.47
0.2868,0.7132	-1823.75
0.3534,0.6466	-1824.76
0.3088,0.6912	-1821.37
0.2941,0.7059	-1815.53
0.3061,0.6939	-1813.21
0.3295,0.6705	-1832.86
0.3189,0.6811	-1824.39
0.3460,0.6540	-1823.92
0.3063,0.6937	-1814.85
0.3162,0.6838	-1817.49
0.2941,0.7059	-1810.27
0.3413,0.6587	-1821.17
0.3074,0.6926	-1823.00
0.3468,0.6532	-1827.74
0.3047,0.6953	-1828.83
0.2889,0.7111	-1812.84
0.3299,0.6701	-1821.50
0.2856,0.7144	-1812.82
0.3295,0.6705	-1819.36
0.2922,0.7078	-1811.10
0.2944,0.7056	-1821.65
0.2831,0.7169	-1824.90
0.4000,0.6000	-1833.14
0.3060,0.6940	-1820.58
0.3205,0.6795	-1821.36
0.2776,0.7224	-1825.28
0.2510,0.7490	-1814.88
0.3113,0.6887	-1827.70
0.3639,0.6361	-1830.19
0.2940,0.7060	-1822.54
0.2841,0.7159	-1809.12
0.2675,0.7325	-1809.01
0.2681,0.7319	-1816.04
0.3373,0.6627	-1825.07
0.3067,0.6933	-1817.31
0.2814,0.7186	-1815.63
0.2461,0.7539	-1802.92
0.2783,0.7217	-1819.51
0.2769,0.7231	-1801.33
0.3344,0.6656	-1829.18
0.2473,0.7527	-1808.46
0.3005,0.6995	-1812.20
0.2431,0.7569	-1809.80
0.2822,0.7178	-1820.28
0.2965,0.7035	-1813.81
0.3191,0.6809	-1821.35
0.2387,0.7613	-1811.23
0.3170,0.6830	-1820.58
0.2359,0.7641	-1803.22
0.2863,0.7137	-1821.04
0.2703,0.7297	-1813.96
0.2816,0.7184	-1817.50
0.2697,0.7303	-1814.98
0.2942,0.7058	-1825.15
0.2381,0.7619	-1811.28
0.3002,0.6998	-1820.65
0.3339,0.6661	-1825.05
0.3030,0.6970	-1813.94
0.3294,0.6706	-1821.49
0.3749,0.6251	-1826.74
0.3050,0.6950	-1817.29
0.2568,0.7432	-1809.21
0.3098,0.6902	-1822.16
0.3113,0.6887	-1819.76
0.3053,0.6947	-1818.11
0.2875,0.7125	-1821.90
0.2823,0.7177	-1823.08
0.2526,0.7474	-1811.52
0.2808,0.7192	-1813.76
0.2803,0.7197	-1822.25
0.3396,0.6604	-1814.45
0.2999,0.7001	-1816.41
0.2798,0.7202	-1819.45
0.2682,0.7318	-1813.02
0.2892,0.7108	-1807.44
0.3143,0.6857	-1822.12
0.3200,0.6800	-1827.39
0.2647,0.7353	-1809.04
0.3010,0.6990	-1818.11
0.2893,0.7107	-1816.43
0.2876,0.7124	-1816.46
0.2965,0.7035	-1814.67
0.2382,0.7618	-1811.27
0.3032,0.6968	-1815.61
0.2929,0.7071	-1818.17
0.2868,0.7132	-1814.64
0.2669,0.7331	-1808.01
0.2918,0.7082	-1822.62
0.2915,0.7085	-1811.98
0.2842,0.7158	-1815.59
0.3192,0.6808	-1822.11
0.2658,0.7342	-1805.98
0.2347,0.7653	-1808.00
0.2701,0.7299	-1819.93
0.2688,0.7312	-1825.01
0.3388,0.6612	-1823.08
0.3325,0.6675	-1821.56
0.2804,0.7196	-1814.71
0.2843,0.7157	-1815.58
0.2999,0.7001	-1814.72
0.2557,0.7443	-1812.45
0.3779,0.6221	-1826.89
0.3228,0.6772	-1822.13
0.2688,0.7312	-1809.00
0.2826,0.7174	-1831.44
0.2980,0.7020	-1824.12
0.2853,0.7147	-1812.82
0.3494,0.6506	-1825.88
0.2682,0.7318	-1814.03
0.2526,0.7474	-1803.93
0.2672,0.7328	-1814.06
0.3393,0.6607	-1827.76
0.2819,0.7181	-1816.56
0.3449,0.6551	-1823.25
0.2692,0.7308	-1812.00
0.3026,0.6974	-1815.60
0.2854,0.7146	-1822.91
0.3126,0.6874	-1822.13
0.3040,0.6960	-1817.28
0.3159,0.6841	-1818.25
0.2967,0.7033	-1816.40
0.3382,0.6618	-1824.41
0.2674,0.7326	-1816.07
0.2947,0.7053	-1812.91
0.3576,0.6424	-1826.08
0.2748,0.7252	-1818.71
0.2900,0.7100	-1811.95
0.3287,0.6713	-1817.91
0.2557,0.7443	-1820.99
0.2989,0.7011	-1821.52
0.3279,0.6721	-1819.31
0.3071,0.6929	-1818.94
0.2964,0.7036	-1831.10
0.3473,0.6527	-1817.01
0.2982,0.7018	-1810.41
0.2976,0.7024	-1818.12
0.3117,0.6883	-1820.55
0.2751,0.7249	-1811.91
0.2468,0.7532	-1818.53
0.3663,0.6337	-1826.92
0.2946,0.7054	-1818.15
0.2989,0.7011	-1815.56
0.3720,0.6280	-1830.80
0.2700,0.7300	-1809.00
0.2925,0.7075	-1817.29
0.3861,0.6139	-1829.20
0.3028,0.6972	-1818.94
0.3043,0.6957	-1820.59
0.3966,0.6034	-1830.13
0.2797,0.7203	-1809.99
0.3591,0.6409	-1829.02
0.3925,0.6075	-1825.56
0.3214,0.6786	-1811.66
0.3011,0.6989	-1819.79
0.3559,0.6441	-1827.81
0.2814,0.7186	-1814.69
0.3326,0.6674	-1822.26
0.3686,0.6314	-1827.54
0.3120,0.6880	-1825.30
0.3305,0.6695	-1819.40
0.4104,0.5896	-1832.72
0.2634,0.7366	-1810.09
0.3258,0.6742	-1822.16
0.3519,0.6481	-1826.54
0.3145,0.6855	-1822.12
0.2788,0.7212	-1811.88
0.4103,0.5897	-1835.61
0.2456,0.7544	-1816.40
0.3111,0.6889	-1827.71
0.3358,0.6642	-1814.14
0.2857,0.7143	-1821.06
0.2504,0.7496	-1816.01
0.4188,0.5812	-1833.11
0.2984,0.7016	-1812.99
0.2817,0.7183	-1811.88
0.2855,0.7145	-1825.66
0.2618,0.7382	-1814.27
0.2462,0.7538	-1819.70
0.4220,0.5780	-1832.02
0.2989,0.7011	-1828.34
0.2725,0.7275	-1814.89
0.2949,0.7051	-1820.76
0.2468,0.7532	-1798.44
0.2747,0.7253	-1817.74
0.4100,0.5900	-1834.88
0.3270,0.6730	-1821.45
0.2600,0.7400	-1827.96
0.3121,0.6879	-1815.02
0.2538,0.7462	-1816.86
0.2763,0.7237	-1805.16
0.4228,0.5772	-1833.00
0.2784,0.7216	-1817.60
0.2764,0.7236	-1810.94
0.3138,0.6862	-1818.21
0.2754,0.7246	-1807.07
0.3688,0.6312	-1831.31
0.3767,0.6233	-1826.33
0.3297,0.6703	-1822.92
0.3045,0.6955	-1817.29
0.3134,0.6866	-1817.42
0.2307,0.7693	-1811.89
0.3758,0.6242	-1823.74
0.3897,0.6103	-1827.57
0.3835,0.6165	-1829.10
0.3474,0.6526	-1824.59
0.3446,0.6554	-1823.88
0.2288,0.7712	-1808.43
0.3923,0.6077	-1828.18
0.3618,0.6382	-1831.32
0.3651,0.6349	-1827.43
0.3816,0.6184	-1825.64
0.3301,0.6699	-1820.80
0.2416,0.7584	-1809.89
0.3717,0.6283	-1825.55
0.3919,0.6081	-1827.27
0.3105,0.6895	-1818.16
0.3706,0.6294	-1832.90
0.3471,0.6529	-1820.79
0.3134,0.6866	-1818.20
0.4272,0.5728	-1832.98
0.3322,0.6678	-1814.57
0.3329,0.6671	-1827.13
0.3878,0.6122	-1827.00
0.3022,0.6978	-1817.27
0.3118,0.6882	-1821.35
0.3995,0.6005	-1830.28
0.3417,0.6583	-1819.87
0.3190,0.6810	-1819.84
0.3842,0.6158	-1831.95
0.3132,0.6868	-1815.06
0.3336,0.6664	-1822.28
0.4306,0.5694	-1834.60
0.3356,0.6644	-1825.06
0.2722,0.7278	-1814.89
0.4001,0.5999	-1833.55
0.3216,0.6784	-1815.40
0.3326,0.6674	-1826.44
0.3690,0.6310	-1825.41
0.3078,0.6922	-1811.65
0.2767,0.7233	-1812.86
0.4272,0.5728	-1831.22
0.2982,0.7018	-1809.56
0.3445,0.6555	-1827.09
0.3130,0.6870	-1826.06
0.3045,0.6955	-1818.94
0.2698,0.7302	-1814.97
0.4034,0.5966	-1831.27
0.3111,0.6889	-1819.76
0.3294,0.6706	-1820.78
0.3290,0.6710	-1827.90
0.3067,0.6933	-1812.41
0.2924,0.7076	-1819.06
0.3186,0.6814	-1821.35
0.3176,0.6824	-1821.35
0.3525,0.6475	-1825.95
0.2916,0.7084	-1816.41
0.3197,0.6803	-1821.36
0.3011,0.6989	-1813.05
0.2811,0.7189	-1814.70
0.3133,0.6867	-1817.42
0.3588,0.6412	-1824.95
0.2815,0.7185	-1808.13
0.2979,0.7021	-1815.55
0.3196,0.6804	-1816.07
0.3315,0.6685	-1822.94
0.2922,0.7078	-1815.53
0.3332,0.6668	-1817.42
0.2946,0.7054	-1828.62
0.2901,0.7099	-1817.32
0.3649,0.6351	-1824.10
0.3195,0.6805	-1817.58
0.2977,0.7023	-1814.69
0.3256,0.6744	-1825.07
0.2588,0.7412	-1810.21
0.2699,0.7301	-1816.96
0.3338,0.6662	-1825.74
0.2860,0.7140	-1815.56
0.2588,0.7412	-1821.78
0.3704,0.6296	-1827.07
0.2630,0.7370	-1802.89
0.2637,0.7363	-1813.16
0.3466,0.6534	-1819.50
0.2890,0.7110	-1811.04
0.2533,0.7467	-1812.57
0.3453,0.6547	-1818.78
0.2442,0.7558	-1809.74
0.2509,0.7491	-1801.76
0.3149,0.6851	-1819.79
0.2998,0.7002	-1824.05
0.2739,0.7261	-1818.75
0.3475,0.6525	-1820.81
0.2777,0.7223	-1800.42
0.2618,0.7382	-1821.53
0.3387,0.6613	-1817.06
0.2734,0.7266	-1815.84
0.2733,0.7267	-1822.69
0.3489,0.6511	-1825.25
0.2979,0.7021	-1805.26
0.2763,0.7237	-1821.53
0.3644,0.6356	-1829.08
0.2758,0.7242	-1812.87
0.2713,0.7287	-1818.87
0.3664,0.6336	-1830.76
0.2937,0.7063	-1818.16
0.2881,0.7119	-1820.07
0.3345,0.6655	-1826.43
0.2667,0.7333	-1804.97
0.2952,0.7048	-1812.05
0.3245,0.6755	-1820.68
0.2910,0.7090	-1822.65
0.2966,0.7034	-1818.99
0.3217,0.6783	-1818.39
0.3046,0.6954	-1812.33
0.2674,0.7326	-1820.10
0.2890,0.7110	-1819.14
0.3207,0.6793	-1816.11
0.2704,0.7296	-1814.95
0.3296,0.6704	-1819.37
0.3138,0.6862	-1810.39
0.2535,0.7465	-1819.04
0.2862,0.7138	-1814.65
0.3045,0.6955	-1822.24
0.2712,0.7288	-1803.07
0.3181,0.6819	-1815.25
0.2730,0.7270	-1808.02
0.3093,0.6907	-1833.41
0.3144,0.6856	-1826.02
0.3250,0.6750	-1817.03
0.2215,0.7785	-1810.34
0.3725,0.6275	-1827.15
0.2768,0.7232	-1809.01
0.2721,0.7279	-1814.90
0.3049,0.6951	-1816.47
0.3208,0.6792	-1823.62
0.2366,0.7634	-1804.37
0.3624,0.6376	-1830.75
0.3158,0.6842	-1815.93
0.2540,0.7460	-1815.76
0.3172,0.6828	-1828.24
0.3700,0.6300	-1825.99
0.1958,0.8042	-1806.97
0.3527,0.6473	-1827.17
0.3339,0.6661	-1822.29
0.2205,0.7795	-1800.35
0.3161,0.6839	-1825.97
0.3791,0.6209	-1827.94
0.2406,0.7594	-1797.31
0.3170,0.6830	-1826.72
0.3363,0.6637	-1815.55
0.2333,0.7667	-1809.28
0.3326,0.6674	-1818.08
0.3333,0.6667	-1821.58
0.2317,0.7683	-1809.41
0.3122,0.6878	-1811.08
0.3499,0.6501	-1826.51
0.2485,0.7515	-1803.99
0.3396,0.6604	-1822.43
0.3167,0.6833	-1812.89
0.2669,0.7331	-1807.00
0.3106,0.6894	-1819.76
0.3021,0.6979	-1814.76
0.2603,0.7397	-1817.48
0.3623,0.6377	-1829.05
0.3160,0.6840	-1822.11
0.2971,0.7029	-1815.54
0.3226,0.6774	-1816.93
0.3102,0.6898	-1812.56
0.2140,0.7860	-1799.50
0.3067,0.6933	-1831.17
0.3197,0.6803	-1813.81
0.3025,0.6975	-1822.28
0.3562,0.6438	-1822.49
0.2841,0.7159	-1813.74
0.2449,0.7551	-1809.70
0.3109,0.6891	-1814.98
0.3383,0.6617	-1826.42
0.3037,0.6963	-1816.45
0.3329,0.6671	-1816.71
0.2800,0.7200	-1809.05
0.2936,0.7064	-1816.40
0.2943,0.7057	-1822.53
0.3153,0.6847	-1821.34
0.3173,0.6827	-1818.28
0.3285,0.6715	-1825.05
0.2567,0.7433	-1810.28
0.2669,0.7331	-1815.08
0.2835,0.7165	-1804.47
0.3296,0.6704	-1823.63
0.3163,0.6837	-1821.34
0.3517,0.6483	-1824.10
0.3242,0.6758	-1819.20
0.2883,0.7117	-1820.06
0.2871,0.7129	-1811.00
0.3088,0.6912	-1815.72
0.3167,0.6833	-1818.27
0.2805,0.7195	-1814.71
0.3002,0.6998	-1822.34
0.3067,0.6933	-1820.57
0.2683,0.7317	-1812.02
0.3530,0.6470	-1825.96
0.3364,0.6636	-1821.67
0.2674,0.7326	-1816.07
0.2890,0.7110	-1810.14
0.3132,0.6868	-1824.48
0.3038,0.6962	-1813.13
0.3994,0.6006	-1830.68
0.2591,0.7409	-1825.96
0.2800,0.7200	-1817.55
0.3245,0.6755	-1821.41
0.2615,0.7385	-1810.14
0.3245,0.6755	-1818.48
0.4463,0.5537	-1834.83
0.2946,0.7054	-1819.02
0.3093,0.6907	-1826.99
0.2928,0.7072	-1804.07
0.2347,0.7653	-1799.73
0.3183,0.6817	-1809.93
0.4381,0.5619	-1834.99
0.3316,0.6684	-1815.23
0.3142,0.6858	-1823.68
0.3575,0.6425	-1820.21
0.2127,0.7873	-1798.29
0.3128,0.6872	-1815.05
0.4168,0.5832	-1831.66
0.3399,0.6601	-1821.11
0.3016,0.6984	-1817.27
0.3253,0.6747	-1817.77
0.2473,0.7527	-1807.35
0.3143,0.6857	-1810.42
0.3746,0.6254	-1825.70
0.3535,0.6465	-1827.78
0.3322,0.6678	-1822.95
0.3310,0.6690	-1818.71
0.2205,0.7795	-1814.25
0.3038,0.6962	-1821.43
0.3725,0.6275	-1828.72
0.3418,0.6582	-1820.53
0.3319,0.6681	-1827.84
0.3025,0.6975	-1813.93
0.2542,0.7458	-1811.44
0.3224,0.6776	-1830.30
0.4130,0.5870	-1831.78
0.2871,0.7129	-1813.73
0.3426,0.6574	-1824.48
0.2692,0.7308	-1808.00
0.2508,0.7492	-1811.61
0.3413,0.6587	-1828.40
0.3789,0.6211	-1829.91
0.2792,0.7208	-1814.73
0.3162,0.6838	-1809.00
0.2657,0.7343	-1814.11
0.2655,0.7345	-1808.02
0.3287,0.6713	-1824.34
0.3837,0.6163	-1824.83
0.3078,0.6922	-1816.51
0.2585,0.7415	-1813.38
0.2842,0.7158	-1820.21
0.2900,0.7100	-1811.95
0.3349,0.6651	-1824.37
0.3342,0.6658	-1816.09
0.2954,0.7046	-1818.14
0.2873,0.7127	-1812.82
0.3151,0.6849	-1819.79
0.2905,0.7095	-1814.64
0.3321,0.6679	-1820.85
0.3273,0.6727	-1821.45
0.2719,0.7281	-1812.93
0.2908,0.7092	-1807.51
0.2858,0.7142	-1807.32
0.3046,0.6954	-1822.24
0.2704,0.7296	-1815.95
0.3221,0.6779	-1822.12
0.2666,0.7334	-1810.03
0.3300,0.6700	-1822.21
0.3169,0.6831	-1824.42
0.3100,0.6900	-1818.15
0.2511,0.7489	-1815.97
0.2685,0.7315	-1810.01
0.2715,0.7285	-1813.93
0.3299,0.6701	-1817.25
0.3311,0.6689	-1827.15
0.3023,0.6977	-1810.58
0.2743,0.7257	-1812.89
0.2856,0.7144	-1819.23
0.2806,0.7194	-1813.76
0.3130,0.6870	-1811.91
0.3967,0.6033	-1826.78
0.2886,0.7114	-1816.44
0.2513,0.7487	-1802.85
0.2695,0.7305	-1804.01
0.2527,0.7473	-1821.27
0.3340,0.6660	-1818.15
0.4046,0.5954	-1832.10
0.2818,0.7182	-1822.17
0.2982,0.7018	-1822.40
0.2814,0.7186	-1812.82
0.2700,0.7300	-1820.94
0.3358,0.6642	-1820.97
0.3668,0.6332	-1831.85
0.2983,0.7017	-1810.42
0.2704,0.7296	-1811.98
0.2966,0.7034	-1821.58
0.2558,0.7442	-1811.37
0.2903,0.7097	-1815.53
0.3527,0.6473	-1824.74
0.2701,0.7299	-1826.89
0.2295,0.7705	-1802.32
0.3192,0.6808	-1820.60
0.2599,0.7401	-1811.23
0.2916,0.7084	-1820.85
0.3235,0.6765	-1816.23
0.2804,0.7196	-1820.36
0.2445,0.7555	-1815.37
0.2810,0.7190	-1812.82
0.2818,0.7182	-1822.17
0.2733,0.7267	-1811.93
0.2987,0.7013	-1814.70
0.2524,0.7476	-1813.70
0.2979,0.7021	-1818.98
0.3097,0.6903	-1813.34
0.2537,0.7463	-1812.55
0.2987,0.7013	-1814.70
0.3395,0.6605	-1818.43
0.2640,0.7360	-1812.13
0.3455,0.6545	-1814.32
0.3350,0.6650	-1820.25
0.2676,0.7324	-1818.08
0.3079,0.6921	-1822.18
0.3029,0.6971	-1818.11
0.3021,0.6979	-1819.78
0.3292,0.6708	-1822.20
0.3155,0.6845	-1819.79
0.2545,0.7455	-1815.73
0.3314,0.6686	-1826.45
0.2941,0.7059	-1812.03
0.2871,0.7129	-1822.83
0.3484,0.6516	-1816.48
0.3408,0.6592	-1820.49
0.2365,0.7635	-1819.60
0.3205,0.6795	-1821.36
0.3351,0.6649	-1820.94
0.2997,0.7003	-1817.26
0.3090,0.6910	-1818.14
0.3134,0.6866	-1821.34
0.2737,0.7263	-1808.02
0.3331,0.6669	-1823.66
0.3060,0.6940	-1818.94
0.3177,0.6823	-1826.70
0.3020,0.6980	-1825.65
0.3313,0.6687	-1826.45
0.2800,0.7200	-1814.72
0.3103,0.6897	-1812.57
0.3128,0.6872	-1816.62
0.2931,0.7069	-1826.97
0.3215,0.6785	-1822.12
0.3606,0.6394	-1823.88
0.2902,0.7098	-1817.32
0.3082,0.6918	-1822.99
0.3179,0.6821	-1823.64
0.2641,0.7359	-1813.15
0.3099,0.6901	-1814.15
0.3872,0.6128	-1830.17
0.3086,0.6914	-1818.14
0.3091,0.6909	-1822.97
0.3235,0.6765	-1820.66
0.2562,0.7438	-1813.49
0.2956,0.7044	-1819.87
0.3287,0.6713	-1825.05
0.3253,0.6747	-1817.77
0.3653,0.6347	-1825.78
0.3244,0.6756	-1827.28
0.2425,0.7575	-1814.39
0.2719,0.7281	-1826.73
0.3160,0.6840	-1821.34
0.3638,0.6362	-1825.16
0.3452,0.6548	-1830.30
0.3031,0.6969	-1818.94
0.2209,0.7791	-1804.11
0.2933,0.7067	-1821.68
0.3002,0.6998	-1813.03
0.3409,0.6591	-1833.68
0.3393,0.6607	-1815.09
0.3381,0.6619	-1825.08
0.2379,0.7621	-1805.48
0.2769,0.7231	-1824.37
0.3331,0.6669	-1820.19
0.2864,0.7136	-1819.21
0.3633,0.6367	-1826.82
0.3347,0.6653	-1822.31
0.2095,0.7905	-1810.49
0.2810,0.7190	-1815.64
0.3307,0.6693	-1822.22
