#isoforms=['ENSG00000101294.SE.1.A.up_ENSG00000101294.SE.1.A.SE1_ENSG00000101294.SE.1.A.dn','ENSG00000101294.SE.1.B.up_ENSG00000101294.SE.1.B.dn']	exon_lens=('ENSG00000101294.SE.1.A.up',99),('ENSG00000101294.SE.1.A.SE1',376),('ENSG00000101294.SE.1.A.dn',89),('ENSG00000101294.SE.1.B.up',99),('ENSG00000101294.SE.1.B.dn',89)	iters=5000	burn_in=500	lag=10	percent_accept=84.20	proposal_type=drift	counts=(0,0):460,(1,0):202,(1,1):254	assigned_counts=0:287,1:169	chrom=chr20	strand=+	mRNA_starts=31527484,31527484	mRNA_ends=31545035,31545035
sampled_psi	log_score
0.2740,0.7260	-2942.63
0.2984,0.7016	-2950.81
0.3269,0.6731	-2951.28
0.3171,0.6829	-2960.69
0.3410,0.6590	-2957.28
0.3483,0.6517	-2952.18
0.2955,0.7045	-2936.25
0.3274,0.6726	-2941.92
0.3548,0.6452	-2956.01
0.3616,0.6384	-2955.59
0.3339,0.6661	-2945.05
0.3285,0.6715	-2945.55
0.2987,0.7013	-2949.08
0.3440,0.6560	-2949.48
0.3530,0.6470	-2946.29
0.3651,0.6349	-2960.15
0.3212,0.6788	-2944.64
0.3316,0.6684	-2947.75
0.3239,0.6761	-2942.49
0.3318,0.6682	-2948.46
0.3929,0.6071	-2961.45
0.3616,0.6384	-2955.03
0.3514,0.6486	-2958.41
0.3245,0.6755	-2941.78
0.3364,0.6636	-2945.17
0.3043,0.6957	-2947.14
0.3483,0.6517	-2960.95
0.3673,0.6327	-2952.01
0.3299,0.6701	-2948.42
0.3215,0.6785	-2957.34
0.3160,0.6840	-2946.89
0.2995,0.7005	-2938.84
0.3328,0.6672	-2949.17
0.3448,0.6552	-2950.80
0.3628,0.6372	-2950.01
0.3509,0.6491	-2949.19
0.3072,0.6928	-2942.98
0.3475,0.6525	-2960.35
0.3160,0.6840	-2935.30
0.3267,0.6733	-2957.79
0.3585,0.6415	-2950.85
0.3291,0.6709	-2939.86
0.3097,0.6903	-2952.59
0.3465,0.6535	-2948.95
0.3328,0.6672	-2954.04
0.3125,0.6875	-2946.14
0.3510,0.6490	-2962.72
0.3084,0.6916	-2940.55
0.3428,0.6572	-2952.04
0.3482,0.6518	-2949.67
0.2738,0.7262	-2936.79
0.3125,0.6875	-2933.53
0.3168,0.6832	-2944.58
0.3245,0.6755	-2952.04
0.3574,0.6426	-2959.58
0.3100,0.6900	-2946.98
0.3068,0.6932	-2951.13
0.3142,0.6858	-2941.44
0.3467,0.6533	-2959.10
0.3436,0.6564	-2954.65
0.3616,0.6384	-2941.96
0.3272,0.6728	-2947.67
0.2941,0.7059	-2936.25
0.2803,0.7197	-2936.49
0.3355,0.6645	-2954.01
0.3487,0.6513	-2959.69
0.3567,0.6433	-2957.22
0.3284,0.6716	-2944.83
0.2903,0.7097	-2947.89
0.3174,0.6826	-2943.82
0.3156,0.6844	-2951.54
0.4132,0.5868	-2964.57
0.3139,0.6861	-2947.69
0.3741,0.6259	-2965.94
0.3041,0.6959	-2946.32
0.2836,0.7164	-2949.36
0.3194,0.6806	-2943.85
0.4191,0.5809	-2966.61
0.3110,0.6890	-2941.39
0.3872,0.6128	-2961.19
0.3266,0.6734	-2954.90
0.2657,0.7343	-2936.32
0.3269,0.6731	-2944.78
0.3551,0.6449	-2956.61
0.3543,0.6457	-2953.60
0.3414,0.6586	-2956.62
0.3400,0.6600	-2940.06
0.2809,0.7191	-2943.99
0.3409,0.6591	-2948.05
0.3336,0.6664	-2958.18
0.3472,0.6528	-2950.25
0.3289,0.6711	-2951.98
0.3150,0.6850	-2953.11
0.3090,0.6910	-2954.24
0.3068,0.6932	-2951.94
0.3653,0.6347	-2958.50
0.3046,0.6954	-2938.05
0.3353,0.6647	-2954.69
0.3174,0.6826	-2953.77
0.2767,0.7233	-2948.17
0.3279,0.6721	-2958.44
0.3218,0.6782	-2954.34
0.3226,0.6774	-2946.89
0.3064,0.6936	-2951.97
0.3042,0.6958	-2932.25
0.2869,0.7131	-2945.41
0.3053,0.6947	-2941.35
0.3125,0.6875	-2948.51
0.3099,0.6901	-2953.38
0.2980,0.7020	-2948.27
0.2491,0.7509	-2941.32
0.2943,0.7057	-2948.50
0.3112,0.6888	-2939.80
0.3637,0.6363	-2951.76
0.3370,0.6630	-2950.61
0.2594,0.7406	-2928.46
0.2838,0.7162	-2936.38
0.2987,0.7013	-2943.96
0.3606,0.6394	-2953.27
0.3629,0.6371	-2959.58
0.3548,0.6452	-2951.82
0.2818,0.7182	-2936.44
0.2805,0.7195	-2933.66
0.2851,0.7149	-2939.11
0.3199,0.6801	-2947.63
0.3719,0.6281	-2956.57
0.3457,0.6543	-2952.11
0.2836,0.7164	-2948.43
0.2627,0.7373	-2927.27
0.2874,0.7126	-2938.12
0.2755,0.7245	-2928.96
0.3336,0.6664	-2945.03
0.3666,0.6334	-2957.98
0.3101,0.6899	-2942.98
0.2950,0.7050	-2941.48
0.3222,0.6778	-2941.68
0.2987,0.7013	-2937.13
0.3299,0.6701	-2954.09
0.3681,0.6319	-2959.64
0.2878,0.7122	-2930.86
0.2640,0.7360	-2941.57
0.3245,0.6755	-2953.51
0.3208,0.6792	-2949.88
0.3402,0.6598	-2954.65
0.3727,0.6273	-2960.77
0.2917,0.7083	-2945.13
0.2720,0.7280	-2954.61
0.3111,0.6889	-2940.59
0.3271,0.6729	-2950.56
0.3416,0.6584	-2967.11
0.3803,0.6197	-2961.43
0.2866,0.7134	-2943.62
0.3077,0.6923	-2940.54
0.3044,0.6956	-2944.65
0.2830,0.7170	-2949.42
0.3524,0.6476	-2955.97
0.3604,0.6396	-2956.70
0.3225,0.6775	-2947.63
0.3018,0.6982	-2939.69
0.2881,0.7119	-2939.01
0.2905,0.7095	-2950.55
0.3468,0.6532	-2947.71
0.3501,0.6499	-2957.19
0.3544,0.6456	-2950.00
0.3899,0.6101	-2960.41
0.3107,0.6893	-2938.19
0.2797,0.7203	-2929.89
0.3534,0.6466	-2953.57
0.3260,0.6740	-2946.20
0.3750,0.6250	-2963.37
0.3969,0.6031	-2961.67
0.3448,0.6552	-2955.30
0.2889,0.7111	-2940.78
0.3891,0.6109	-2959.47
0.3213,0.6787	-2951.37
0.3776,0.6224	-2954.88
0.3422,0.6578	-2964.45
0.3368,0.6632	-2958.06
0.2923,0.7077	-2931.83
0.3442,0.6558	-2963.03
0.2995,0.7005	-2939.69
0.3372,0.6628	-2952.64
0.3081,0.6919	-2958.35
0.3232,0.6768	-2939.51
0.3360,0.6640	-2955.37
0.3348,0.6652	-2951.95
0.2852,0.7148	-2929.92
0.3049,0.6951	-2940.52
0.3065,0.6935	-2951.15
0.3650,0.6350	-2960.15
0.3325,0.6675	-2955.44
0.4004,0.5996	-2959.86
0.3091,0.6909	-2944.58
0.3347,0.6653	-2956.76
0.3332,0.6668	-2951.26
0.3748,0.6252	-2959.28
0.3247,0.6753	-2952.04
0.3970,0.6030	-2958.33
0.2807,0.7193	-2953.41
0.3265,0.6735	-2947.66
0.3443,0.6557	-2951.43
0.3331,0.6669	-2957.51
0.3482,0.6518	-2948.42
0.3726,0.6274	-2961.81
0.2813,0.7187	-2933.64
0.2844,0.7156	-2949.28
0.3150,0.6850	-2946.90
0.3384,0.6616	-2941.92
0.3442,0.6558	-2948.85
0.3909,0.6091	-2958.69
0.2746,0.7254	-2946.46
0.2944,0.7056	-2946.74
0.3038,0.6962	-2935.55
0.3332,0.6668	-2951.26
0.3507,0.6493	-2955.34
0.3723,0.6277	-2957.63
0.2947,0.7053	-2939.74
0.3360,0.6640	-2947.87
0.2883,0.7117	-2957.07
0.3233,0.6767	-2947.64
0.3038,0.6962	-2941.35
0.3565,0.6435	-2958.99
0.3203,0.6797	-2952.90
0.3148,0.6852	-2936.79
0.3132,0.6868	-2944.56
0.3182,0.6818	-2942.31
0.3539,0.6461	-2962.01
0.2936,0.7064	-2946.79
0.3316,0.6684	-2934.44
0.3164,0.6836	-2951.51
0.3276,0.6724	-2948.40
0.3325,0.6675	-2947.08
0.3473,0.6527	-2955.94
0.2838,0.7162	-2928.05
0.3345,0.6655	-2942.33
0.3294,0.6706	-2949.84
0.3375,0.6625	-2951.30
0.3109,0.6891	-2942.18
0.3149,0.6851	-2952.34
0.3116,0.6884	-2936.64
0.3381,0.6619	-2954.66
0.3141,0.6859	-2945.35
0.3267,0.6733	-2948.39
0.3479,0.6521	-2957.19
0.3161,0.6839	-2938.40
0.3132,0.6868	-2953.20
0.3694,0.6306	-2957.52
0.3283,0.6717	-2947.69
0.3217,0.6783	-2945.39
0.3660,0.6340	-2948.07
0.3331,0.6669	-2950.57
0.3326,0.6674	-2952.65
0.3535,0.6465	-2951.15
0.3078,0.6922	-2951.08
0.3451,0.6549	-2954.02
0.3362,0.6638	-2945.16
0.3275,0.6725	-2952.71
0.3682,0.6318	-2959.64
0.3996,0.6004	-2962.65
0.3630,0.6370	-2954.52
0.3418,0.6582	-2950.71
0.3596,0.6404	-2966.49
0.3307,0.6693	-2939.27
0.3089,0.6911	-2941.36
0.3633,0.6367	-2960.14
0.3413,0.6587	-2955.30
0.3040,0.6960	-2945.49
0.3126,0.6874	-2946.14
0.3694,0.6306	-2956.99
0.2745,0.7255	-2937.72
0.3244,0.6756	-2946.91
0.3230,0.6770	-2943.94
0.3094,0.6906	-2945.38
0.3427,0.6573	-2955.30
0.3932,0.6068	-2958.87
0.2828,0.7172	-2941.99
0.3349,0.6651	-2947.15
0.3685,0.6315	-2948.88
0.3440,0.6560	-2955.30
0.3198,0.6802	-2946.12
0.3941,0.6059	-2962.81
0.3303,0.6697	-2947.72
0.3714,0.6286	-2953.91
0.3102,0.6898	-2948.57
0.2946,0.7054	-2946.73
0.3036,0.6964	-2938.86
0.3712,0.6288	-2964.97
0.3105,0.6895	-2950.16
0.3222,0.6778	-2949.86
0.3375,0.6625	-2947.25
0.3401,0.6599	-2950.67
0.3127,0.6873	-2950.08
0.3658,0.6342	-2955.75
0.2964,0.7036	-2949.23
0.3084,0.6916	-2947.82
0.3389,0.6611	-2946.64
0.3691,0.6309	-2956.97
0.2978,0.7022	-2933.70
0.3632,0.6368	-2960.71
0.3208,0.6792	-2949.13
0.3206,0.6794	-2943.88
0.3342,0.6658	-2954.71
0.4161,0.5839	-2964.09
0.3312,0.6688	-2940.71
0.3253,0.6747	-2952.03
0.3017,0.6983	-2933.81
0.2973,0.7027	-2940.57
0.2971,0.7029	-2938.85
0.3652,0.6348	-2954.63
0.3327,0.6673	-2947.78
0.3152,0.6848	-2956.99
0.2897,0.7103	-2938.96
0.2900,0.7100	-2947.01
0.3023,0.6977	-2954.74
0.3490,0.6510	-2950.33
0.3398,0.6602	-2944.69
0.2968,0.7032	-2944.02
0.3127,0.6873	-2950.86
0.3046,0.6954	-2943.82
0.2960,0.7040	-2944.05
0.3122,0.6878	-2935.09
0.3161,0.6839	-2963.10
0.3089,0.6911	-2939.75
0.3122,0.6878	-2946.14
0.3017,0.6983	-2942.20
0.2898,0.7102	-2945.23
0.3062,0.6938	-2938.90
0.2974,0.7026	-2945.72
0.2903,0.7097	-2940.74
0.2804,0.7196	-2938.37
0.3358,0.6642	-2947.87
0.2869,0.7131	-2935.40
0.3012,0.6988	-2942.21
0.3132,0.6868	-2928.86
0.2925,0.7075	-2946.85
0.3148,0.6852	-2950.79
0.3215,0.6785	-2949.87
0.3030,0.6970	-2942.19
0.3819,0.6181	-2957.63
0.3271,0.6729	-2949.11
0.3514,0.6486	-2953.51
0.3206,0.6794	-2941.62
0.3358,0.6642	-2951.96
0.3665,0.6335	-2961.26
0.3644,0.6356	-2956.81
0.2979,0.7021	-2938.84
0.3443,0.6557	-2955.30
0.3501,0.6499	-2962.75
0.3388,0.6612	-2947.30
0.3747,0.6253	-2953.64
0.3047,0.6953	-2948.77
0.3491,0.6509	-2945.98
0.3742,0.6258	-2960.80
0.3514,0.6486	-2963.32
0.3434,0.6566	-2941.69
0.3474,0.6526	-2959.72
0.3177,0.6823	-2941.53
0.3334,0.6666	-2949.18
0.3714,0.6286	-2958.65
0.3226,0.6774	-2943.18
0.3380,0.6620	-2947.27
0.3269,0.6731	-2956.33
0.3436,0.6564	-2951.41
0.3457,0.6543	-2953.38
0.3377,0.6623	-2950.62
0.3222,0.6778	-2948.38
0.3131,0.6869	-2948.49
0.3420,0.6580	-2955.30
0.3245,0.6755	-2946.18
0.3389,0.6611	-2965.35
0.3775,0.6225	-2963.87
0.3641,0.6359	-2953.46
0.3007,0.6993	-2938.84
0.3866,0.6134	-2960.24
0.3035,0.6965	-2940.52
0.3284,0.6716	-2960.57
0.3561,0.6439	-2950.10
0.3556,0.6444	-2961.96
0.3034,0.6966	-2944.68
0.3705,0.6295	-2960.21
0.3316,0.6684	-2943.55
0.3019,0.6981	-2943.88
0.3113,0.6887	-2944.57
0.3479,0.6521	-2949.03
0.2745,0.7255	-2939.67
0.3284,0.6716	-2958.42
0.3462,0.6538	-2955.94
0.3372,0.6628	-2947.91
0.3189,0.6811	-2952.95
0.3322,0.6678	-2946.37
0.2949,0.7051	-2949.33
0.3295,0.6705	-2956.23
0.3107,0.6893	-2948.55
0.2930,0.7070	-2940.65
0.3389,0.6611	-2949.98
0.3059,0.6941	-2938.07
0.3033,0.6967	-2948.00
0.3400,0.6600	-2959.96
0.3152,0.6848	-2944.57
0.3125,0.6875	-2953.23
0.3564,0.6436	-2956.04
0.3061,0.6939	-2947.90
0.2872,0.7128	-2956.30
0.3733,0.6267	-2956.64
0.2711,0.7289	-2942.89
0.3209,0.6791	-2947.63
0.3262,0.6738	-2952.74
0.2914,0.7086	-2953.14
0.2854,0.7146	-2952.87
0.3311,0.6689	-2947.74
0.2930,0.7070	-2942.42
0.3153,0.6847	-2938.36
0.3034,0.6966	-2945.51
0.3057,0.6943	-2946.27
0.3098,0.6902	-2943.78
0.2968,0.7032	-2952.65
0.3218,0.6782	-2955.83
0.2979,0.7021	-2948.28
0.3240,0.6760	-2950.58
0.3196,0.6804	-2948.39
0.3363,0.6637	-2953.32
0.2987,0.7013	-2949.94
0.3361,0.6639	-2946.51
0.3275,0.6725	-2946.24
0.3286,0.6714	-2939.83
0.2918,0.7082	-2937.14
0.3352,0.6648	-2956.75
0.3148,0.6852	-2948.46
0.3700,0.6300	-2955.95
0.3267,0.6733	-2942.60
0.2997,0.7003	-2943.08
0.3129,0.6871	-2937.48
0.3463,0.6537	-2950.22
0.3126,0.6874	-2949.29
0.3697,0.6303	-2958.60
0.3334,0.6666	-2950.57
0.2739,0.7261	-2921.18
0.3684,0.6316	-2961.26
0.3531,0.6469	-2950.53
0.3222,0.6778	-2946.89
0.3227,0.6773	-2949.12
0.2889,0.7111	-2944.39
0.3206,0.6794	-2940.87
0.3313,0.6687	-2961.09
0.3446,0.6554	-2961.08
0.3102,0.6898	-2946.17
0.3601,0.6399	-2954.97
0.2959,0.7041	-2937.12
0.3407,0.6593	-2947.39
0.3341,0.6659	-2949.19
0.3348,0.6652	-2940.28
0.3060,0.6940	-2936.44
0.3397,0.6603	-2947.34
0.2779,0.7221	-2948.04
0.3697,0.6303	-2953.26
0.3638,0.6362	-2958.47
0.3331,0.6669	-2944.32
0.3285,0.6715	-2951.27
0.3511,0.6489	-2957.80
0.2798,0.7202	-2941.24
0.3188,0.6812	-2942.32
0.3495,0.6505	-2955.95
0.3009,0.6991	-2943.90
0.3126,0.6874	-2946.93
0.3574,0.6426	-2951.95
0.2830,0.7170	-2942.91
0.3300,0.6700	-2948.43
0.3616,0.6384	-2945.36
0.3105,0.6895	-2948.56
0.3001,0.6999	-2929.53
0.3152,0.6848	-2947.67
0.3085,0.6915	-2944.59
0.2945,0.7055	-2939.74
0.3779,0.6221	-2964.37
0.3211,0.6789	-2946.88
0.2990,0.7010	-2943.10
0.2929,0.7071	-2937.13
0.3446,0.6554	-2953.37
0.3239,0.6761	-2946.17
0.3797,0.6203	-2956.02
0.3219,0.6781	-2946.89
0.3163,0.6837	-2953.83
0.3259,0.6741	-2941.12
0.3618,0.6382	-2948.80
0.2864,0.7136	-2949.10
0.3516,0.6484	-2950.45
0.2995,0.7005	-2942.24
0.3204,0.6796	-2938.61
0.3109,0.6891	-2947.75
0.3583,0.6417	-2951.42
0.3232,0.6768	-2943.94
0.3640,0.6360	-2961.26
0.2890,0.7110	-2938.08
0.3109,0.6891	-2941.39
0.3213,0.6787	-2943.89
0.3375,0.6625	-2954.67
0.3710,0.6290	-2951.77
0.3332,0.6668	-2953.34
0.3124,0.6876	-2939.83
0.3021,0.6979	-2954.76
0.2985,0.7015	-2948.24
0.3211,0.6789	-2944.64
0.3631,0.6369	-2957.33
0.3020,0.6980	-2936.33
0.3740,0.6260	-2952.04
0.2889,0.7111	-2936.28
0.3083,0.6917	-2944.59
0.3093,0.6907	-2938.15
0.2919,0.7081	-2945.11
0.3146,0.6854	-2960.92
0.3659,0.6341	-2954.66
0.3390,0.6610	-2955.32
0.3201,0.6799	-2954.41
0.3056,0.6944	-2944.63
0.3267,0.6733	-2944.77
0.3035,0.6965	-2943.84
0.3453,0.6547	-2961.69
0.3155,0.6845	-2949.22
0.3346,0.6654	-2954.02
0.3043,0.6957	-2947.97
0.3071,0.6929	-2953.56
0.3492,0.6508	-2955.94
0.3432,0.6568	-2959.84
0.3342,0.6658	-2942.30
0.2913,0.7087	-2944.26
0.2976,0.7024	-2937.99
0.3224,0.6776	-2955.80
0.3022,0.6978	-2956.42
0.3595,0.6405	-2950.33
0.2851,0.7149	-2944.62
0.2861,0.7139	-2941.81
0.3001,0.6999	-2935.45
0.3366,0.6634	-2950.61
0.3206,0.6794	-2947.63
0.3367,0.6633	-2954.68
0.3257,0.6743	-2949.84
0.2939,0.7061	-2932.74
0.3134,0.6866	-2950.84
0.3062,0.6938	-2932.35
0.2823,0.7177	-2946.69
0.3452,0.6548	-2955.30
0.3485,0.6515	-2949.68
0.2991,0.7009	-2947.36
0.3092,0.6908	-2955.83
0.3123,0.6877	-2932.72
0.2995,0.7005	-2936.29
0.3548,0.6452	-2942.25
0.3572,0.6428	-2950.76
0.3381,0.6619	-2951.98
0.3247,0.6753	-2946.91
0.2945,0.7055	-2946.73
0.3271,0.6729	-2945.51
0.4053,0.5947	-2964.13
0.3871,0.6129	-2961.65
0.3538,0.6462	-2962.01
0.3342,0.6658	-2946.44
0.2926,0.7074	-2940.67
0.2884,0.7116	-2945.32
0.3538,0.6462	-2963.82
0.3522,0.6478	-2951.70
0.3460,0.6540	-2948.29
0.3963,0.6037	-2958.69
0.2971,0.7029	-2944.87
0.3165,0.6835	-2939.19
0.3785,0.6215	-2956.43
0.3212,0.6788	-2953.62
0.3728,0.6272	-2954.53
0.3695,0.6305	-2955.39
0.3120,0.6880	-2956.42
0.3112,0.6888	-2946.95
0.3478,0.6522	-2955.94
0.3067,0.6933	-2944.61
0.3638,0.6362	-2959.59
0.3578,0.6422	-2961.92
0.2968,0.7032	-2956.10
0.3521,0.6479	-2957.19
0.3663,0.6337	-2953.03
0.2929,0.7071	-2938.01
0.3739,0.6261	-2955.64
0.3854,0.6146	-2959.72
0.2850,0.7150	-2938.19
0.3154,0.6846	-2945.34
0.3688,0.6312	-2959.11
0.2973,0.7027	-2948.31
0.3660,0.6340	-2959.61
0.3824,0.6176	-2966.76
0.2808,0.7192	-2944.00
0.3142,0.6858	-2940.66
0.3132,0.6868	-2945.35
0.3311,0.6689	-2948.44
0.3097,0.6903	-2959.01
0.3415,0.6585	-2956.62
0.2789,0.7211	-2929.90
0.3553,0.6447	-2955.42
0.3550,0.6450	-2959.00
0.3098,0.6902	-2948.58
0.3449,0.6551	-2950.16
0.2913,0.7087	-2952.26
0.2882,0.7118	-2939.91
0.3580,0.6420	-2952.57
0.3589,0.6411	-2957.83
0.3246,0.6754	-2952.04
0.3677,0.6323	-2954.21
0.3008,0.6992	-2943.06
0.2735,0.7265	-2929.97
0.3530,0.6470	-2955.98
0.3413,0.6587	-2952.02
0.3339,0.6661	-2950.57
0.3401,0.6599	-2952.00
0.2769,0.7231	-2936.63
0.3051,0.6949	-2942.99
0.2931,0.7069	-2932.73
0.3433,0.6567	-2943.62
0.3239,0.6761	-2948.38
0.3471,0.6529	-2957.20
0.3104,0.6896	-2950.96
0.2633,0.7367	-2933.42
0.3088,0.6912	-2944.59
0.3821,0.6179	-2967.25
0.3349,0.6651	-2947.15
0.3492,0.6508	-2955.94
0.3049,0.6951	-2950.41
0.2976,0.7024	-2949.15
0.3446,0.6554	-2952.08
0.3749,0.6251	-2961.32
0.3037,0.6963	-2941.35
0.2964,0.7036	-2945.77
0.3087,0.6913	-2942.97
0.2915,0.7085	-2946.03
0.2998,0.7002	-2949.02
0.3539,0.6461	-2948.77
0.2956,0.7044	-2940.60
0.3251,0.6749	-2944.00
0.3132,0.6868	-2949.27
0.2949,0.7051	-2945.84
0.2789,0.7211	-2930.84
0.3360,0.6640	-2948.55
0.2991,0.7009	-2952.46
0.3252,0.6748	-2946.92
0.3123,0.6877	-2948.51
0.3030,0.6970	-2943.02
0.3209,0.6791	-2955.13
0.3062,0.6938	-2929.90
0.3003,0.6997	-2934.61
0.2963,0.7037	-2939.72
0.3559,0.6441	-2948.91
0.3243,0.6757	-2948.38
0.3867,0.6133	-2954.25
0.3237,0.6763	-2948.38
0.3369,0.6631	-2941.81
0.3383,0.6617	-2960.70
0.3643,0.6357	-2957.36
0.3419,0.6581	-2953.34
0.3563,0.6437	-2954.85
0.3476,0.6524	-2950.90
0.2835,0.7165	-2942.88
0.3470,0.6530	-2944.55
0.3667,0.6333	-2953.61
0.2971,0.7029	-2950.04
0.3764,0.6236	-2954.28
0.3440,0.6560	-2955.30
0.2794,0.7206	-2936.52
0.3412,0.6588	-2951.36
0.3685,0.6315	-2957.49
0.3027,0.6973	-2943.86
0.3936,0.6064	-2967.54
0.3001,0.6999	-2959.16
0.2846,0.7154	-2935.44
0.3008,0.6992	-2941.37
0.3586,0.6414	-2955.50
0.3213,0.6787	-2944.64
0.3645,0.6355	-2956.26
0.3029,0.6971	-2940.52
0.3129,0.6871	-2954.00
0.3089,0.6911	-2940.56
0.3620,0.6380	-2955.04
0.3268,0.6732	-2951.28
0.3612,0.6388	-2957.29
0.3383,0.6617	-2953.32
0.2894,0.7106	-2933.58
0.3496,0.6504	-2948.50
0.3538,0.6462	-2951.17
0.3451,0.6549	-2949.53
0.3549,0.6451	-2951.23
0.3139,0.6861	-2947.69
0.2798,0.7202	-2942.18
0.3618,0.6382	-2956.74
0.3633,0.6367	-2961.27
0.3278,0.6722	-2953.43
0.3299,0.6701	-2954.80
0.2892,0.7108	-2944.37
0.3182,0.6818	-2952.21
0.3243,0.6757	-2948.38
0.3512,0.6488	-2953.50
0.3251,0.6749	-2940.34
0.3993,0.6007	-2961.00
0.3044,0.6956	-2938.87
0.3236,0.6764	-2956.49
0.2983,0.7017	-2952.53
0.3375,0.6625	-2956.69
0.3276,0.6724	-2941.21
0.3955,0.6045	-2959.05
0.2790,0.7210	-2944.13
0.3165,0.6835	-2941.50
0.3178,0.6822	-2945.35
0.3285,0.6715	-2954.13
0.3156,0.6844	-2944.57
0.3811,0.6189	-2961.94
0.2684,0.7316	-2941.14
0.3355,0.6645	-2951.96
0.3474,0.6526	-2948.37
0.3254,0.6746	-2945.46
0.3142,0.6858	-2946.13
0.3304,0.6696	-2955.50
0.2505,0.7495	-2922.49
0.3490,0.6510	-2954.69
0.3468,0.6532	-2958.47
0.3427,0.6573	-2952.69
0.3177,0.6823	-2949.94
0.3257,0.6743	-2954.93
0.2857,0.7143	-2941.83
0.3704,0.6296	-2955.97
0.3947,0.6053	-2959.84
0.3744,0.6256	-2959.26
0.3351,0.6649	-2942.36
0.3179,0.6821	-2949.93
0.3225,0.6775	-2956.54
0.3781,0.6219	-2956.90
0.3746,0.6254	-2953.63
0.3525,0.6475	-2954.15
0.3161,0.6839	-2939.94
0.3205,0.6795	-2943.12
0.3134,0.6866	-2945.35
0.3897,0.6103	-2954.13
0.3736,0.6264	-2950.97
0.3360,0.6640	-2951.96
0.3346,0.6654	-2949.20
0.2923,0.7077	-2951.28
0.3615,0.6385	-2951.61
0.4169,0.5831	-2966.16
0.3347,0.6653	-2949.89
0.3136,0.6864	-2950.05
0.3749,0.6251	-2960.30
0.3179,0.6821	-2944.59
0.3133,0.6867	-2956.33
0.3771,0.6229	-2965.88
0.3065,0.6935	-2942.17
0.2829,0.7171	-2941.06
0.3954,0.6046	-2965.83
0.3601,0.6399	-2954.97
0.3527,0.6473	-2952.33
0.3323,0.6677	-2945.67
0.3425,0.6575	-2953.34
0.2952,0.7048	-2926.68
0.3944,0.6056	-2958.53
0.3120,0.6880	-2942.19
0.3505,0.6495	-2948.55
0.2689,0.7311	-2934.09
0.3601,0.6399	-2957.85
0.3083,0.6917	-2946.21
0.3808,0.6192	-2963.39
0.3061,0.6939	-2934.80
0.3047,0.6953	-2937.22
0.2724,0.7276	-2935.89
0.3655,0.6345	-2948.57
0.3026,0.6974	-2946.37
0.4157,0.5843	-2965.42
0.3348,0.6652	-2945.09
0.3220,0.6780	-2949.12
0.3148,0.6852	-2955.46
0.3631,0.6369	-2950.59
0.3075,0.6925	-2946.23
0.4334,0.5666	-2966.69
0.3173,0.6827	-2949.95
0.2904,0.7096	-2933.58
0.3065,0.6935	-2942.98
0.3206,0.6794	-2949.88
0.3069,0.6931	-2947.05
0.3570,0.6430	-2956.05
0.3621,0.6379	-2959.58
0.3252,0.6748	-2939.62
0.3159,0.6841	-2943.03
0.3155,0.6845	-2939.15
0.3169,0.6831	-2948.42
0.3602,0.6398	-2945.21
0.3669,0.6331	-2961.26
0.3424,0.6576	-2958.56
0.3083,0.6917	-2958.33
0.2831,0.7169	-2938.26
0.3253,0.6747	-2947.65
0.3696,0.6304	-2954.32
0.3800,0.6200	-2956.53
0.3235,0.6765	-2941.00
0.3064,0.6936	-2939.72
0.3254,0.6746	-2952.02
0.3357,0.6643	-2949.91
0.3431,0.6569	-2952.05
0.3587,0.6413	-2962.48
0.2960,0.7040	-2951.85
0.3358,0.6642	-2954.69
0.3061,0.6939	-2944.62
0.3402,0.6598	-2959.29
0.3344,0.6656	-2960.21
0.3889,0.6111	-2963.97
0.3010,0.6990	-2949.80
0.3138,0.6862	-2950.82
0.3305,0.6695	-2937.14
0.3968,0.6032	-2965.01
0.3013,0.6987	-2943.05
0.3606,0.6394	-2952.12
0.2974,0.7026	-2953.46
0.3326,0.6674	-2951.26
0.3269,0.6731	-2952.00
0.3998,0.6002	-2964.28
0.3123,0.6877	-2947.72
0.3501,0.6499	-2952.86
0.3591,0.6409	-2956.10
0.2869,0.7131	-2939.04
0.3087,0.6913	-2938.14
0.4178,0.5822	-2962.55
0.3264,0.6736	-2957.81
0.3484,0.6516	-2955.94
0.3434,0.6566	-2946.22
0.2871,0.7129	-2944.49
0.3418,0.6582	-2946.78
0.3538,0.6462	-2952.38
0.3144,0.6856	-2947.68
0.3589,0.6411	-2959.57
0.3207,0.6793	-2949.88
0.3111,0.6889	-2943.77
0.3196,0.6804	-2946.12
0.3418,0.6582	-2955.30
0.3254,0.6746	-2949.84
0.3576,0.6424	-2954.30
0.3045,0.6955	-2943.00
0.3697,0.6303	-2958.07
0.3428,0.6572	-2953.34
0.3534,0.6466	-2946.32
0.3449,0.6551	-2945.03
0.3103,0.6897	-2949.37
0.3051,0.6949	-2941.35
0.3586,0.6414	-2950.85
0.3630,0.6370	-2953.40
0.3829,0.6171	-2958.64
0.3527,0.6473	-2954.15
