#isoforms=['ENSG00000110080.SE.2.A.up_ENSG00000110080.SE.2.A.SE1_ENSG00000110080.SE.2.A.dn','ENSG00000110080.SE.2.B.up_ENSG00000110080.SE.2.B.dn']	exon_lens=('ENSG00000110080.SE.2.A.up',61),('ENSG00000110080.SE.2.A.SE1',96),('ENSG00000110080.SE.2.A.dn',190),('ENSG00000110080.SE.2.B.up',61),('ENSG00000110080.SE.2.B.dn',190)	iters=5000	burn_in=500	lag=10	percent_accept=94.58	proposal_type=drift	counts=(0,0):120,(1,0):195,(1,1):277	assigned_counts=0:467,1:5	chrom=chr11	strand=+	mRNA_starts=126407574,126407574	mRNA_ends=126408496,126408496
sampled_psi	log_score
0.9411,0.0589	-2745.82
0.9806,0.0194	-2732.95
0.9343,0.0657	-2778.41
0.8708,0.1292	-2793.66
0.9511,0.0489	-2745.13
0.9138,0.0862	-2763.88
0.9459,0.0541	-2748.29
0.9817,0.0183	-2701.33
0.9447,0.0553	-2748.35
0.8802,0.1198	-2790.85
0.9521,0.0479	-2763.03
0.9284,0.0716	-2755.02
0.9487,0.0513	-2754.00
0.9793,0.0207	-2709.57
0.9417,0.0583	-2765.24
0.8960,0.1040	-2789.89
0.9578,0.0422	-2723.17
0.9395,0.0605	-2743.24
0.9350,0.0650	-2743.80
0.9743,0.0257	-2724.87
0.9480,0.0520	-2733.67
0.9104,0.0896	-2785.11
0.9532,0.0468	-2736.03
0.9289,0.0711	-2772.96
0.9342,0.0658	-2762.48
0.9725,0.0275	-2739.18
0.9541,0.0459	-2732.90
0.9133,0.0867	-2782.76
0.9566,0.0434	-2732.64
0.9375,0.0625	-2767.85
0.9358,0.0642	-2759.77
0.9734,0.0266	-2721.29
0.9598,0.0402	-2722.85
0.9150,0.0850	-2768.50
0.9611,0.0389	-2745.10
0.9462,0.0538	-2754.01
0.9361,0.0639	-2759.76
0.9692,0.0308	-2728.53
0.9456,0.0544	-2762.58
0.9242,0.0758	-2780.46
0.9571,0.0429	-2745.02
0.9462,0.0538	-2748.27
0.9390,0.0610	-2759.69
0.9784,0.0216	-2709.70
0.9619,0.0381	-2712.84
0.9222,0.0778	-2768.05
0.9534,0.0466	-2729.97
0.9450,0.0550	-2736.95
0.9469,0.0531	-2748.24
0.9841,0.0159	-2696.70
0.9619,0.0381	-2735.44
0.9091,0.0909	-2766.70
0.9493,0.0507	-2759.87
0.9492,0.0508	-2759.86
0.9476,0.0524	-2759.79
0.9877,0.0123	-2700.18
0.9574,0.0426	-2723.24
0.9181,0.0819	-2765.87
0.9490,0.0510	-2751.08
0.9464,0.0536	-2762.62
0.9337,0.0663	-2746.62
0.9877,0.0123	-2717.73
0.9458,0.0542	-2748.29
0.9237,0.0763	-2777.95
0.9426,0.0574	-2751.28
0.9423,0.0577	-2768.05
0.9203,0.0797	-2775.49
0.9880,0.0120	-2700.12
0.9376,0.0624	-2759.72
0.9472,0.0528	-2745.34
0.9275,0.0725	-2762.75
0.9509,0.0491	-2748.11
0.9245,0.0755	-2790.49
0.9877,0.0123	-2700.18
0.9311,0.0689	-2746.96
0.9587,0.0413	-2735.60
0.9256,0.0744	-2772.95
0.9364,0.0636	-2749.00
0.9446,0.0554	-2748.36
0.9887,0.0113	-2708.97
0.9467,0.0533	-2759.76
0.9564,0.0436	-2741.93
0.9407,0.0593	-2751.39
0.9357,0.0643	-2743.71
0.9385,0.0615	-2746.08
0.9820,0.0180	-2697.27
0.9398,0.0602	-2759.68
0.9522,0.0478	-2742.10
0.9398,0.0602	-2748.70
0.9276,0.0724	-2772.95
0.9260,0.0740	-2783.05
0.9819,0.0181	-2701.27
0.9364,0.0636	-2778.58
0.9577,0.0423	-2735.66
0.9389,0.0611	-2748.77
0.9300,0.0700	-2772.97
0.9341,0.0659	-2783.70
0.9835,0.0165	-2717.30
0.9277,0.0723	-2762.74
0.9677,0.0323	-2735.38
0.9274,0.0726	-2752.56
0.9428,0.0572	-2726.05
0.9458,0.0542	-2739.71
0.9821,0.0179	-2717.26
0.9270,0.0730	-2762.78
0.9702,0.0298	-2718.05
0.9275,0.0725	-2775.50
0.9506,0.0494	-2742.20
0.9481,0.0519	-2739.47
0.9812,0.0188	-2733.08
0.9367,0.0633	-2757.05
0.9697,0.0303	-2731.98
0.9351,0.0649	-2762.46
0.9480,0.0520	-2736.58
0.9348,0.0652	-2757.14
0.9786,0.0214	-2705.85
0.9365,0.0635	-2762.44
0.9681,0.0319	-2735.39
0.9368,0.0632	-2754.35
0.9603,0.0397	-2738.70
0.9370,0.0630	-2770.54
0.9808,0.0192	-2713.32
0.9519,0.0481	-2751.08
0.9655,0.0345	-2715.38
0.9502,0.0498	-2751.07
0.9573,0.0427	-2732.58
0.9357,0.0643	-2757.10
0.9838,0.0162	-2717.31
0.9573,0.0427	-2745.02
0.9591,0.0409	-2726.10
0.9513,0.0487	-2742.16
0.9589,0.0411	-2722.98
0.9379,0.0621	-2751.57
0.9830,0.0170	-2713.22
0.9598,0.0402	-2726.02
0.9534,0.0466	-2763.17
0.9544,0.0456	-2735.92
0.9622,0.0378	-2735.43
0.9493,0.0507	-2756.94
0.9811,0.0189	-2709.35
0.9580,0.0420	-2713.76
0.9465,0.0535	-2748.26
0.9615,0.0385	-2716.15
0.9487,0.0513	-2745.25
0.9513,0.0487	-2739.19
0.9810,0.0190	-2725.14
0.9559,0.0441	-2748.10
0.9410,0.0590	-2737.52
0.9615,0.0385	-2729.02
0.9529,0.0471	-2739.06
0.9531,0.0469	-2739.05
0.9779,0.0221	-2717.35
0.9640,0.0360	-2735.39
0.9365,0.0635	-2757.06
0.9573,0.0427	-2735.69
0.9390,0.0610	-2759.70
0.9579,0.0421	-2738.77
0.9816,0.0184	-2733.16
0.9546,0.0454	-2729.81
0.9313,0.0687	-2765.18
0.9506,0.0494	-2742.20
0.9549,0.0451	-2720.62
0.9510,0.0490	-2742.17
0.9810,0.0190	-2709.37
0.9571,0.0429	-2738.81
0.9374,0.0626	-2751.61
0.9564,0.0436	-2738.84
0.9567,0.0433	-2726.44
0.9451,0.0549	-2742.63
0.9772,0.0228	-2709.87
0.9540,0.0460	-2738.98
0.9380,0.0620	-2757.00
0.9578,0.0422	-2723.17
0.9460,0.0540	-2731.10
0.9444,0.0556	-2751.20
0.9796,0.0204	-2717.28
0.9610,0.0390	-2748.30
0.9352,0.0648	-2743.77
0.9495,0.0505	-2754.01
0.9399,0.0601	-2737.68
0.9481,0.0519	-2756.90
0.9802,0.0198	-2732.87
0.9654,0.0346	-2738.70
0.9480,0.0520	-2756.90
0.9579,0.0421	-2726.27
0.9545,0.0455	-2723.74
0.9525,0.0475	-2742.09
0.9856,0.0144	-2708.99
0.9574,0.0426	-2760.58
0.9452,0.0548	-2742.63
0.9499,0.0501	-2748.13
0.9589,0.0411	-2722.98
0.9492,0.0508	-2745.22
0.9832,0.0168	-2701.00
0.9564,0.0436	-2748.11
0.9615,0.0385	-2725.80
0.9449,0.0551	-2748.34
0.9587,0.0413	-2751.32
0.9548,0.0452	-2726.73
0.9850,0.0150	-2704.83
0.9622,0.0378	-2738.67
0.9559,0.0441	-2754.25
0.9521,0.0479	-2745.10
0.9598,0.0402	-2735.54
0.9594,0.0406	-2741.88
0.9785,0.0215	-2709.68
0.9555,0.0445	-2729.68
0.9587,0.0413	-2719.87
0.9583,0.0417	-2735.62
0.9620,0.0380	-2751.60
0.9664,0.0336	-2735.37
0.9780,0.0220	-2728.72
0.9538,0.0462	-2729.91
0.9547,0.0453	-2738.94
0.9469,0.0531	-2748.24
0.9601,0.0399	-2725.98
0.9601,0.0399	-2735.52
0.9793,0.0207	-2717.28
0.9562,0.0438	-2741.93
0.9578,0.0422	-2738.78
0.9277,0.0723	-2752.53
0.9635,0.0365	-2722.30
0.9517,0.0483	-2757.03
0.9803,0.0197	-2709.45
0.9587,0.0413	-2719.87
0.9668,0.0332	-2725.26
0.9257,0.0743	-2767.90
0.9707,0.0293	-2707.50
0.9533,0.0467	-2745.06
0.9803,0.0197	-2721.17
0.9650,0.0350	-2732.06
0.9720,0.0280	-2732.03
0.9411,0.0589	-2770.76
0.9564,0.0436	-2732.66
0.9496,0.0504	-2754.01
0.9817,0.0183	-2709.29
0.9603,0.0397	-2738.70
0.9687,0.0313	-2728.54
0.9453,0.0547	-2745.47
0.9557,0.0443	-2769.60
0.9461,0.0539	-2748.28
0.9854,0.0146	-2704.78
0.9603,0.0397	-2745.07
0.9668,0.0332	-2721.88
0.9437,0.0563	-2731.50
0.9475,0.0525	-2751.10
0.9538,0.0462	-2732.94
0.9891,0.0109	-2695.46
0.9656,0.0344	-2735.37
0.9632,0.0368	-2738.67
0.9571,0.0429	-2748.12
0.9482,0.0518	-2748.18
0.9500,0.0500	-2727.51
0.9924,0.0076	-2694.76
0.9639,0.0361	-2728.82
0.9651,0.0349	-2725.41
0.9469,0.0531	-2742.48
0.9444,0.0556	-2731.37
0.9492,0.0508	-2739.37
0.9910,0.0090	-2695.03
0.9639,0.0361	-2715.67
0.9678,0.0322	-2731.98
0.9445,0.0555	-2745.53
0.9444,0.0556	-2756.87
0.9492,0.0508	-2765.72
0.9916,0.0084	-2704.45
0.9571,0.0429	-2745.02
0.9662,0.0338	-2728.66
0.9500,0.0500	-2754.02
0.9455,0.0545	-2768.28
0.9512,0.0488	-2736.22
0.9911,0.0089	-2709.16
0.9503,0.0497	-2759.93
0.9681,0.0319	-2735.39
0.9461,0.0539	-2751.14
0.9438,0.0562	-2745.58
0.9580,0.0420	-2729.39
0.9909,0.0091	-2695.06
0.9373,0.0627	-2775.95
0.9734,0.0266	-2735.69
0.9394,0.0606	-2754.21
0.9456,0.0544	-2734.02
0.9494,0.0506	-2733.48
0.9925,0.0075	-2704.50
0.9423,0.0577	-2748.50
0.9748,0.0252	-2710.26
0.9352,0.0648	-2751.78
0.9498,0.0502	-2745.19
0.9483,0.0517	-2733.63
0.9910,0.0090	-2699.74
0.9427,0.0573	-2740.08
0.9729,0.0271	-2732.06
0.9374,0.0626	-2743.49
0.9525,0.0475	-2739.09
0.9453,0.0547	-2739.77
0.9888,0.0112	-2695.53
0.9394,0.0606	-2729.54
0.9778,0.0222	-2724.92
0.9408,0.0592	-2754.14
0.9493,0.0507	-2739.35
0.9560,0.0440	-2751.18
0.9879,0.0121	-2704.55
0.9537,0.0463	-2732.96
0.9773,0.0227	-2717.38
0.9488,0.0512	-2748.16
0.9484,0.0516	-2736.54
0.9653,0.0347	-2725.39
0.9897,0.0103	-2704.45
0.9454,0.0546	-2745.46
0.9742,0.0258	-2721.25
0.9461,0.0539	-2754.01
0.9449,0.0551	-2736.98
0.9713,0.0287	-2717.91
0.9922,0.0078	-2704.48
0.9300,0.0700	-2772.97
0.9778,0.0222	-2724.92
0.9398,0.0602	-2759.68
0.9403,0.0597	-2751.41
0.9739,0.0261	-2724.88
0.9918,0.0082	-2699.66
0.9347,0.0653	-2743.85
0.9795,0.0205	-2721.15
0.9399,0.0601	-2776.18
0.9485,0.0515	-2730.70
0.9699,0.0301	-2735.45
0.9940,0.0060	-2694.48
0.9345,0.0655	-2743.87
0.9787,0.0213	-2717.31
0.9450,0.0550	-2754.02
0.9582,0.0418	-2723.11
0.9699,0.0301	-2721.57
0.9913,0.0087	-2704.44
0.9418,0.0582	-2742.97
0.9792,0.0208	-2724.99
0.9492,0.0508	-2745.22
0.9563,0.0437	-2738.85
0.9683,0.0317	-2731.98
0.9894,0.0106	-2704.46
0.9568,0.0432	-2748.11
0.9798,0.0202	-2721.15
0.9469,0.0531	-2730.96
0.9614,0.0386	-2745.11
0.9590,0.0410	-2748.19
0.9867,0.0133	-2713.26
0.9589,0.0411	-2719.84
0.9819,0.0181	-2705.28
0.9340,0.0660	-2757.19
0.9683,0.0317	-2725.14
0.9598,0.0402	-2732.36
0.9878,0.0122	-2713.34
0.9618,0.0382	-2732.22
0.9818,0.0182	-2713.27
0.9297,0.0703	-2770.39
0.9712,0.0288	-2724.97
0.9626,0.0374	-2754.91
0.9891,0.0109	-2704.47
0.9564,0.0436	-2741.93
0.9832,0.0168	-2717.29
0.9461,0.0539	-2739.68
0.9718,0.0282	-2724.94
0.9665,0.0335	-2748.82
0.9887,0.0113	-2695.55
0.9591,0.0409	-2732.42
0.9832,0.0168	-2709.14
0.9481,0.0519	-2751.09
0.9716,0.0284	-2739.08
0.9610,0.0390	-2748.29
0.9898,0.0102	-2709.02
0.9533,0.0467	-2748.08
0.9849,0.0151	-2721.56
0.9410,0.0590	-2751.37
0.9684,0.0316	-2731.98
0.9626,0.0374	-2758.15
0.9896,0.0104	-2695.34
0.9566,0.0434	-2726.45
0.9819,0.0181	-2713.26
0.9492,0.0508	-2730.58
0.9647,0.0353	-2745.30
0.9569,0.0431	-2738.82
0.9913,0.0087	-2694.98
0.9554,0.0446	-2748.09
0.9804,0.0196	-2709.43
0.9512,0.0488	-2739.19
0.9634,0.0366	-2738.67
0.9616,0.0384	-2745.12
0.9936,0.0064	-2699.58
0.9584,0.0416	-2732.48
0.9821,0.0179	-2709.24
0.9591,0.0409	-2729.27
0.9669,0.0331	-2721.87
0.9578,0.0422	-2732.53
0.9945,0.0055	-2699.60
0.9582,0.0418	-2735.63
0.9827,0.0173	-2713.23
0.9574,0.0426	-2738.79
0.9680,0.0320	-2718.35
0.9570,0.0430	-2748.12
0.9933,0.0067	-2694.59
0.9592,0.0408	-2738.73
0.9850,0.0150	-2700.65
0.9599,0.0401	-2719.66
0.9622,0.0378	-2738.67
0.9548,0.0452	-2729.78
0.9930,0.0070	-2694.64
0.9664,0.0336	-2728.65
0.9881,0.0119	-2704.53
0.9630,0.0370	-2738.67
0.9618,0.0382	-2728.99
0.9436,0.0564	-2768.14
0.9918,0.0082	-2694.87
0.9680,0.0320	-2721.75
0.9865,0.0135	-2696.08
0.9576,0.0424	-2723.20
0.9685,0.0315	-2731.98
0.9480,0.0520	-2748.19
0.9909,0.0091	-2690.35
0.9670,0.0330	-2725.24
0.9861,0.0139	-2704.71
0.9606,0.0394	-2725.91
0.9709,0.0291	-2721.47
0.9518,0.0482	-2748.09
0.9912,0.0088	-2690.28
0.9672,0.0328	-2721.84
0.9890,0.0110	-2708.98
0.9646,0.0354	-2732.07
0.9718,0.0282	-2732.02
0.9589,0.0411	-2732.43
0.9912,0.0088	-2704.44
0.9686,0.0314	-2731.98
0.9895,0.0105	-2704.46
0.9638,0.0362	-2718.98
0.9695,0.0305	-2731.98
0.9623,0.0377	-2771.07
0.9926,0.0074	-2699.61
0.9634,0.0366	-2728.86
0.9903,0.0097	-2709.06
0.9594,0.0406	-2732.39
0.9697,0.0303	-2735.44
0.9654,0.0346	-2725.39
0.9927,0.0073	-2694.70
0.9672,0.0328	-2715.08
0.9916,0.0084	-2699.68
0.9644,0.0356	-2705.68
0.9692,0.0308	-2749.21
0.9552,0.0448	-2732.78
0.9916,0.0084	-2718.75
0.9726,0.0274	-2714.21
0.9905,0.0095	-2704.44
0.9701,0.0299	-2728.50
0.9771,0.0229	-2709.88
0.9525,0.0475	-2733.09
0.9904,0.0096	-2699.80
0.9652,0.0348	-2718.76
0.9911,0.0089	-2695.02
0.9765,0.0235	-2728.61
0.9787,0.0213	-2717.31
0.9493,0.0507	-2736.43
0.9894,0.0106	-2704.46
0.9691,0.0309	-2725.08
0.9934,0.0066	-2699.59
0.9717,0.0283	-2707.26
0.9804,0.0196	-2729.00
0.9531,0.0469	-2736.03
0.9891,0.0109	-2718.01
0.9693,0.0307	-2735.43
0.9933,0.0067	-2689.59
0.9788,0.0212	-2721.14
0.9832,0.0168	-2709.15
0.9615,0.0385	-2751.54
0.9857,0.0143	-2708.99
0.9700,0.0300	-2718.08
0.9931,0.0069	-2694.63
0.9772,0.0228	-2717.38
0.9833,0.0167	-2705.06
0.9644,0.0356	-2741.98
0.9859,0.0141	-2704.73
0.9747,0.0253	-2717.57
0.9936,0.0064	-2704.63
0.9782,0.0218	-2732.55
0.9849,0.0151	-2734.09
0.9672,0.0328	-2731.99
0.9836,0.0164	-2705.02
0.9754,0.0246	-2739.59
0.9951,0.0049	-2689.01
0.9792,0.0208	-2713.44
0.9831,0.0169	-2705.10
0.9690,0.0310	-2738.86
0.9808,0.0192	-2701.52
0.9786,0.0214	-2724.96
0.9942,0.0058	-2694.44
0.9769,0.0231	-2724.89
0.9774,0.0226	-2717.37
0.9698,0.0302	-2721.57
0.9780,0.0220	-2724.93
0.9746,0.0254	-2721.22
0.9956,0.0044	-2694.28
0.9708,0.0292	-2742.51
0.9797,0.0203	-2728.90
0.9688,0.0312	-2731.97
0.9764,0.0236	-2717.43
0.9734,0.0266	-2717.69
0.9955,0.0045	-2688.87
0.9730,0.0270	-2710.56
0.9782,0.0218	-2709.72
0.9757,0.0243	-2713.79
0.9740,0.0260	-2739.37
0.9674,0.0326	-2728.60
0.9948,0.0052	-2694.36
0.9690,0.0310	-2731.97
0.9831,0.0169	-2705.08
0.9774,0.0226	-2732.44
0.9722,0.0278	-2724.93
0.9691,0.0309	-2735.42
0.9937,0.0063	-2689.46
0.9710,0.0290	-2724.97
0.9786,0.0214	-2702.03
0.9755,0.0245	-2721.19
0.9721,0.0279	-2717.83
0.9658,0.0342	-2735.37
0.9949,0.0051	-2694.35
0.9722,0.0278	-2728.48
0.9785,0.0215	-2728.77
0.9759,0.0241	-2706.37
0.9714,0.0286	-2739.05
0.9603,0.0397	-2722.77
0.9943,0.0057	-2694.44
0.9657,0.0343	-2732.03
0.9836,0.0164	-2700.92
0.9724,0.0276	-2746.29
0.9689,0.0311	-2738.85
0.9545,0.0455	-2738.95
0.9935,0.0065	-2704.61
0.9694,0.0306	-2725.06
0.9777,0.0223	-2713.57
0.9714,0.0286	-2714.39
0.9646,0.0354	-2735.38
0.9542,0.0458	-2723.79
0.9944,0.0056	-2694.42
0.9732,0.0268	-2728.49
0.9800,0.0200	-2713.37
0.9788,0.0212	-2736.47
0.9583,0.0417	-2729.36
0.9398,0.0602	-2754.19
0.9938,0.0062	-2709.73
0.9676,0.0324	-2735.38
0.9824,0.0176	-2725.31
0.9775,0.0225	-2736.22
0.9562,0.0438	-2738.85
0.9471,0.0529	-2779.97
0.9929,0.0071	-2704.54
0.9630,0.0370	-2715.85
0.9856,0.0144	-2708.99
0.9810,0.0190	-2729.09
0.9544,0.0456	-2732.88
0.9582,0.0418	-2748.16
0.9942,0.0058	-2699.59
0.9632,0.0368	-2725.61
0.9827,0.0173	-2729.39
0.9818,0.0182	-2709.28
0.9512,0.0488	-2745.13
0.9564,0.0436	-2751.19
0.9929,0.0071	-2704.54
0.9564,0.0436	-2738.84
0.9845,0.0155	-2713.20
0.9780,0.0220	-2736.30
0.9518,0.0482	-2736.16
0.9622,0.0378	-2725.73
0.9939,0.0061	-2694.49
0.9536,0.0464	-2739.01
0.9843,0.0157	-2709.06
0.9744,0.0256	-2721.23
0.9590,0.0410	-2748.19
0.9733,0.0267	-2717.70
0.9918,0.0082	-2699.67
0.9554,0.0446	-2741.96
0.9811,0.0189	-2709.35
0.9749,0.0251	-2713.90
0.9535,0.0465	-2726.94
0.9707,0.0293	-2731.99
0.9914,0.0086	-2699.70
0.9473,0.0527	-2754.00
0.9870,0.0130	-2717.60
0.9778,0.0222	-2713.57
0.9554,0.0446	-2763.41
0.9648,0.0352	-2732.06
0.9901,0.0099	-2690.62
0.9465,0.0535	-2748.26
0.9851,0.0149	-2704.83
0.9759,0.0241	-2721.17
0.9620,0.0380	-2738.67
0.9545,0.0455	-2757.21
0.9914,0.0086	-2718.71
0.9554,0.0446	-2748.09
0.9829,0.0171	-2709.17
0.9686,0.0314	-2725.12
0.9572,0.0428	-2748.13
0.9537,0.0463	-2732.95
0.9919,0.0081	-2718.88
0.9374,0.0626	-2751.61
0.9759,0.0241	-2728.58
0.9701,0.0299	-2728.50
0.9598,0.0402	-2719.67
0.9467,0.0533	-2745.37
0.9911,0.0089	-2695.01
0.9336,0.0664	-2738.71
0.9719,0.0281	-2721.39
0.9639,0.0361	-2735.39
0.9565,0.0435	-2732.65
0.9432,0.0568	-2740.01
0.9914,0.0086	-2704.45
0.9383,0.0617	-2767.87
0.9688,0.0312	-2711.37
0.9690,0.0310	-2725.09
0.9577,0.0423	-2748.14
0.9369,0.0631	-2757.04
0.9923,0.0077	-2689.92
0.9256,0.0744	-2783.03
0.9660,0.0340	-2725.33
0.9766,0.0234	-2709.97
0.9638,0.0362	-2738.67
0.9428,0.0572	-2734.45
0.9903,0.0097	-2704.44
0.9120,0.0880	-2771.08
0.9648,0.0352	-2732.06
0.9766,0.0234	-2732.34
0.9583,0.0417	-2741.89
0.9359,0.0641	-2759.77
0.9920,0.0080	-2699.65
0.9138,0.0862	-2766.23
0.9731,0.0269	-2728.49
0.9765,0.0235	-2728.61
0.9610,0.0390	-2729.07
0.9371,0.0629	-2759.73
0.9920,0.0080	-2714.11
0.9256,0.0744	-2762.86
0.9773,0.0227	-2728.66
0.9802,0.0198	-2701.65
0.9686,0.0314	-2718.26
0.9327,0.0673	-2744.13
0.9912,0.0088	-2694.99
0.9449,0.0551	-2739.82
0.9798,0.0202	-2717.27
0.9833,0.0167	-2721.37
0.9643,0.0357	-2748.57
0.9333,0.0667	-2762.51
0.9917,0.0083	-2699.67
0.9467,0.0533	-2736.74
0.9808,0.0192	-2717.25
0.9795,0.0205	-2709.54
0.9655,0.0345	-2708.72
0.9257,0.0743	-2777.99
0.9933,0.0067	-2699.59
0.9510,0.0490	-2733.28
0.9846,0.0154	-2704.89
0.9749,0.0251	-2717.55
0.9665,0.0335	-2748.81
0.9460,0.0540	-2776.91
0.9932,0.0068	-2694.60
0.9424,0.0576	-2754.09
0.9873,0.0127	-2704.60
0.9726,0.0274	-2707.06
0.9590,0.0410	-2732.42
0.9528,0.0472	-2745.08
0.9907,0.0093	-2704.44
0.9448,0.0552	-2773.91
0.9897,0.0103	-2704.45
0.9664,0.0336	-2725.29
0.9567,0.0433	-2723.35
0.9561,0.0439	-2735.78
0.9901,0.0099	-2699.83
0.9526,0.0474	-2745.08
0.9914,0.0086	-2709.19
0.9670,0.0330	-2738.75
0.9561,0.0439	-2738.86
0.9556,0.0444	-2732.74
0.9900,0.0100	-2704.44
0.9512,0.0488	-2736.22
0.9908,0.0092	-2695.08
0.9711,0.0289	-2724.97
0.9598,0.0402	-2741.88
0.9467,0.0533	-2754.00
0.9896,0.0104	-2699.89
0.9603,0.0397	-2725.96
0.9903,0.0097	-2699.82
0.9742,0.0258	-2724.88
0.9627,0.0373	-2728.92
0.9497,0.0503	-2736.39
0.9905,0.0095	-2699.79
0.9562,0.0438	-2751.18
0.9877,0.0123	-2704.56
0.9740,0.0260	-2714.01
0.9616,0.0384	-2748.34
0.9650,0.0350	-2728.74
0.9917,0.0083	-2704.46
0.9584,0.0416	-2748.17
0.9897,0.0103	-2699.88
0.9745,0.0255	-2724.87
0.9664,0.0336	-2725.29
0.9630,0.0370	-2732.15
0.9912,0.0088	-2704.44
0.9532,0.0468	-2751.09
0.9887,0.0113	-2713.43
0.9819,0.0181	-2709.27
0.9662,0.0338	-2718.60
0.9602,0.0398	-2748.25
0.9907,0.0093	-2704.44
0.9560,0.0440	-2760.41
0.9845,0.0155	-2704.90
0.9797,0.0203	-2717.28
0.9696,0.0304	-2721.59
0.9614,0.0386	-2732.25
0.9924,0.0076	-2714.25
0.9581,0.0419	-2732.50
0.9833,0.0167	-2721.37
0.9802,0.0198	-2713.36
0.9707,0.0293	-2724.99
0.9617,0.0383	-2745.12
0.9935,0.0065	-2704.62
0.9653,0.0347	-2735.37
0.9861,0.0139	-2726.02
0.9765,0.0235	-2724.88
0.9692,0.0308	-2742.33
0.9593,0.0407	-2732.41
0.9938,0.0062	-2699.58
0.9662,0.0338	-2728.66
0.9843,0.0157	-2713.20
0.9756,0.0244	-2710.12
0.9713,0.0287	-2703.82
0.9536,0.0464	-2754.12
0.9925,0.0075	-2699.62
0.9736,0.0264	-2721.28
0.9829,0.0171	-2701.06
0.9719,0.0281	-2728.48
0.9692,0.0308	-2735.42
0.9506,0.0494	-2751.07
0.9917,0.0083	-2699.67
0.9691,0.0309	-2718.19
0.9834,0.0166	-2713.21
0.9794,0.0206	-2705.69
0.9807,0.0193	-2721.18
0.9568,0.0432	-2729.53
0.9924,0.0076	-2694.75
0.9672,0.0328	-2725.22
0.9832,0.0168	-2705.08
0.9791,0.0209	-2717.29
0.9756,0.0244	-2728.56
0.9547,0.0453	-2726.75
0.9911,0.0089	-2704.44
0.9642,0.0358	-2725.50
0.9845,0.0155	-2700.74
0.9746,0.0254	-2728.52
0.9780,0.0220	-2724.93
0.9556,0.0444	-2726.60
0.9919,0.0081	-2694.84
0.9664,0.0336	-2721.93
0.9826,0.0174	-2701.14
0.9756,0.0244	-2724.87
0.9798,0.0202	-2725.04
0.9602,0.0398	-2745.06
0.9912,0.0088	-2699.72
0.9714,0.0286	-2724.96
0.9853,0.0147	-2721.61
0.9731,0.0269	-2721.31
0.9756,0.0244	-2717.49
0.9582,0.0418	-2732.50
0.9907,0.0093	-2713.77
0.9713,0.0287	-2714.40
0.9832,0.0168	-2709.14
0.9737,0.0263	-2714.05
0.9762,0.0238	-2713.74
0.9637,0.0363	-2718.99
0.9911,0.0089	-2709.15
0.9708,0.0292	-2746.01
0.9805,0.0195	-2717.26
0.9732,0.0268	-2735.68
0.9784,0.0216	-2721.13
0.9684,0.0316	-2721.70
0.9906,0.0094	-2690.46
0.9655,0.0345	-2732.04
0.9822,0.0178	-2717.26
0.9714,0.0286	-2735.53
0.9842,0.0158	-2721.47
0.9743,0.0257	-2735.78
0.9903,0.0097	-2699.81
0.9679,0.0321	-2725.17
0.9840,0.0160	-2721.44
0.9722,0.0278	-2721.37
0.9808,0.0192	-2717.25
0.9758,0.0242	-2743.35
0.9918,0.0082	-2694.87
0.9639,0.0361	-2748.53
0.9841,0.0159	-2713.20
0.9723,0.0277	-2724.92
0.9813,0.0187	-2705.37
0.9749,0.0251	-2713.89
0.9889,0.0111	-2700.00
0.9685,0.0315	-2742.25
0.9808,0.0192	-2705.45
0.9771,0.0229	-2709.89
0.9804,0.0196	-2725.08
0.9714,0.0286	-2714.38
0.9917,0.0083	-2694.90
0.9606,0.0394	-2719.52
0.9828,0.0172	-2717.27
0.9783,0.0217	-2721.13
0.9859,0.0141	-2704.73
0.9731,0.0269	-2717.72
0.9897,0.0103	-2704.45
0.9681,0.0319	-2728.57
0.9826,0.0174	-2709.20
0.9738,0.0262	-2721.27
0.9857,0.0143	-2713.22
0.9718,0.0282	-2728.48
0.9884,0.0116	-2704.51
0.9647,0.0353	-2738.68
0.9849,0.0151	-2725.75
0.9763,0.0237	-2721.16
0.9836,0.0164	-2717.30
0.9713,0.0287	-2732.01
0.9890,0.0110	-2704.48
0.9688,0.0312	-2707.92
0.9768,0.0232	-2717.41
0.9745,0.0255	-2717.58
0.9857,0.0143	-2700.51
0.9708,0.0292	-2728.49
0.9857,0.0143	-2717.45
0.9683,0.0317	-2735.40
0.9690,0.0310	-2714.76
0.9692,0.0308	-2742.32
0.9818,0.0182	-2709.28
0.9613,0.0387	-2729.05
0.9845,0.0155	-2717.35
0.9695,0.0305	-2718.13
0.9727,0.0273	-2721.34
0.9716,0.0284	-2717.88
0.9825,0.0175	-2713.24
0.9513,0.0487	-2739.19
0.9762,0.0238	-2702.59
0.9715,0.0285	-2732.01
0.9708,0.0292	-2739.00
0.9751,0.0249	-2732.21
0.9802,0.0198	-2713.36
0.9533,0.0467	-2732.99
0.9752,0.0248	-2706.52
0.9797,0.0203	-2725.03
