#isoforms=['ENSG00000110080.SE.2.A.up_ENSG00000110080.SE.2.A.SE1_ENSG00000110080.SE.2.A.dn','ENSG00000110080.SE.2.B.up_ENSG00000110080.SE.2.B.dn']	exon_lens=('ENSG00000110080.SE.2.A.up',61),('ENSG00000110080.SE.2.A.SE1',96),('ENSG00000110080.SE.2.A.dn',190),('ENSG00000110080.SE.2.B.up',61),('ENSG00000110080.SE.2.B.dn',190)	iters=5000	burn_in=500	lag=10	percent_accept=96.19	proposal_type=drift	counts=(0,0):537,(1,0):287,(1,1):203	assigned_counts=0:485,1:5	chrom=chr11	strand=+	mRNA_starts=126407574,126407574	mRNA_ends=126408496,126408496
sampled_psi	log_score
0.9812,0.0188	-2773.26
0.9601,0.0399	-2781.11
0.9637,0.0363	-2764.40
0.9672,0.0328	-2763.66
0.9881,0.0119	-2752.19
0.9716,0.0284	-2780.48
0.9815,0.0185	-2753.42
0.9610,0.0390	-2781.02
0.9692,0.0308	-2777.07
0.9664,0.0336	-2773.91
0.9878,0.0122	-2752.23
0.9787,0.0213	-2765.52
0.9815,0.0185	-2765.33
0.9654,0.0346	-2770.70
0.9690,0.0310	-2783.97
0.9689,0.0311	-2756.45
0.9867,0.0133	-2752.41
0.9746,0.0254	-2762.30
0.9793,0.0207	-2761.62
0.9724,0.0276	-2769.80
0.9692,0.0308	-2763.27
0.9687,0.0313	-2773.67
0.9868,0.0132	-2752.39
0.9770,0.0230	-2761.92
0.9773,0.0227	-2758.13
0.9775,0.0225	-2765.63
0.9681,0.0319	-2770.32
0.9730,0.0270	-2769.74
0.9877,0.0123	-2761.03
0.9726,0.0274	-2762.64
0.9811,0.0189	-2765.35
0.9808,0.0192	-2753.56
0.9696,0.0304	-2783.97
0.9733,0.0267	-2791.29
0.9894,0.0106	-2747.48
0.9694,0.0306	-2777.06
0.9855,0.0145	-2769.50
0.9828,0.0172	-2765.28
0.9646,0.0354	-2774.12
0.9743,0.0257	-2751.44
0.9889,0.0111	-2756.57
0.9623,0.0377	-2767.95
0.9869,0.0131	-2756.71
0.9819,0.0181	-2757.32
0.9622,0.0378	-2771.20
0.9792,0.0208	-2757.77
0.9897,0.0103	-2742.84
0.9686,0.0314	-2766.82
0.9902,0.0098	-2751.91
0.9812,0.0188	-2769.30
0.9507,0.0493	-2782.26
0.9766,0.0234	-2776.91
0.9924,0.0076	-2756.61
0.9711,0.0289	-2762.92
0.9881,0.0119	-2752.19
0.9786,0.0214	-2761.70
0.9605,0.0395	-2774.69
0.9759,0.0241	-2762.10
0.9926,0.0074	-2746.83
0.9736,0.0264	-2762.48
0.9878,0.0122	-2765.42
0.9793,0.0207	-2773.18
0.9602,0.0398	-2797.01
0.9823,0.0177	-2765.30
0.9912,0.0088	-2747.09
0.9710,0.0290	-2773.47
0.9894,0.0106	-2765.62
0.9781,0.0219	-2757.97
0.9582,0.0418	-2768.78
0.9812,0.0188	-2773.26
0.9915,0.0085	-2747.03
0.9676,0.0324	-2766.98
0.9893,0.0107	-2756.55
0.9801,0.0199	-2749.81
0.9598,0.0402	-2781.14
0.9827,0.0173	-2753.17
0.9889,0.0111	-2743.09
0.9766,0.0234	-2747.07
0.9887,0.0113	-2761.05
0.9811,0.0189	-2757.46
0.9678,0.0322	-2773.76
0.9811,0.0189	-2749.56
0.9904,0.0096	-2747.27
0.9773,0.0227	-2761.89
0.9916,0.0084	-2747.01
0.9777,0.0223	-2754.27
0.9655,0.0345	-2784.01
0.9770,0.0230	-2769.42
0.9903,0.0097	-2747.29
0.9744,0.0256	-2758.69
0.9934,0.0066	-2751.70
0.9793,0.0207	-2769.33
0.9537,0.0463	-2781.85
0.9784,0.0216	-2769.36
0.9882,0.0118	-2769.89
0.9782,0.0218	-2773.17
0.9945,0.0055	-2746.52
0.9841,0.0159	-2761.14
0.9597,0.0403	-2774.81
0.9816,0.0184	-2749.43
0.9898,0.0102	-2747.39
0.9764,0.0236	-2765.74
0.9948,0.0052	-2751.73
0.9839,0.0161	-2761.16
0.9653,0.0347	-2764.06
0.9807,0.0193	-2753.60
0.9910,0.0090	-2747.14
0.9725,0.0275	-2759.09
0.9961,0.0039	-2751.91
0.9835,0.0165	-2761.19
0.9673,0.0327	-2767.03
0.9844,0.0156	-2761.12
0.9913,0.0087	-2747.07
0.9735,0.0265	-2758.88
0.9965,0.0035	-2751.98
0.9866,0.0134	-2752.43
0.9682,0.0318	-2777.13
0.9830,0.0170	-2761.22
0.9934,0.0066	-2751.70
0.9719,0.0281	-2784.03
0.9969,0.0031	-2746.33
0.9832,0.0168	-2765.28
0.9726,0.0274	-2755.50
0.9805,0.0195	-2753.62
0.9936,0.0064	-2741.60
0.9706,0.0294	-2770.00
0.9970,0.0030	-2740.53
0.9841,0.0159	-2757.02
0.9723,0.0277	-2773.37
0.9795,0.0205	-2765.45
0.9946,0.0054	-2746.50
0.9752,0.0248	-2769.54
0.9980,0.0020	-2752.63
0.9845,0.0155	-2752.82
0.9743,0.0257	-2769.62
0.9794,0.0206	-2761.60
0.9947,0.0053	-2746.49
0.9780,0.0220	-2769.38
0.9981,0.0019	-2740.20
0.9823,0.0177	-2765.30
0.9741,0.0259	-2762.39
0.9816,0.0184	-2765.33
0.9942,0.0058	-2741.43
0.9818,0.0182	-2757.35
0.9974,0.0026	-2740.42
0.9810,0.0190	-2753.53
0.9774,0.0226	-2761.87
0.9805,0.0195	-2757.55
0.9948,0.0052	-2741.21
0.9793,0.0207	-2761.61
0.9975,0.0025	-2740.38
0.9810,0.0190	-2765.36
0.9788,0.0212	-2754.00
0.9870,0.0130	-2743.70
0.9957,0.0043	-2740.94
0.9843,0.0157	-2752.85
0.9977,0.0023	-2740.31
0.9773,0.0227	-2769.41
0.9813,0.0187	-2761.38
0.9852,0.0148	-2748.49
0.9951,0.0049	-2746.45
0.9889,0.0111	-2752.08
0.9977,0.0023	-2740.31
0.9794,0.0206	-2757.73
0.9785,0.0215	-2761.72
0.9874,0.0126	-2752.30
0.9959,0.0041	-2746.37
0.9883,0.0117	-2756.60
0.9979,0.0021	-2740.25
0.9778,0.0222	-2780.74
0.9749,0.0251	-2762.25
0.9857,0.0143	-2748.36
0.9951,0.0049	-2746.45
0.9891,0.0109	-2761.07
0.9976,0.0024	-2746.37
0.9720,0.0280	-2759.20
0.9731,0.0269	-2780.50
0.9869,0.0131	-2761.03
0.9945,0.0055	-2751.71
0.9909,0.0091	-2756.53
0.9974,0.0026	-2746.35
0.9715,0.0285	-2776.96
0.9769,0.0231	-2765.68
0.9882,0.0118	-2752.19
0.9949,0.0051	-2741.20
0.9894,0.0106	-2747.47
0.9979,0.0021	-2740.23
0.9704,0.0296	-2766.53
0.9794,0.0206	-2780.91
0.9827,0.0173	-2749.12
0.9954,0.0046	-2741.02
0.9892,0.0108	-2752.04
0.9979,0.0021	-2752.59
0.9712,0.0288	-2766.41
0.9830,0.0170	-2761.22
0.9831,0.0169	-2765.28
0.9936,0.0064	-2746.65
0.9895,0.0105	-2751.99
0.9981,0.0019	-2746.44
0.9667,0.0333	-2787.35
0.9852,0.0148	-2756.88
0.9795,0.0205	-2753.86
0.9930,0.0070	-2741.78
0.9875,0.0125	-2747.92
0.9980,0.0020	-2746.42
0.9731,0.0269	-2769.74
0.9820,0.0180	-2749.32
0.9801,0.0199	-2757.61
0.9930,0.0070	-2746.75
0.9895,0.0105	-2752.00
0.9978,0.0022	-2740.27
0.9667,0.0333	-2783.98
0.9818,0.0182	-2745.37
0.9837,0.0163	-2752.97
0.9936,0.0064	-2741.60
0.9876,0.0124	-2761.03
0.9984,0.0016	-2740.09
0.9675,0.0325	-2783.97
0.9819,0.0181	-2765.31
0.9851,0.0149	-2761.08
0.9921,0.0079	-2746.91
0.9885,0.0115	-2752.14
0.9983,0.0017	-2746.50
0.9704,0.0296	-2777.00
0.9849,0.0151	-2752.73
0.9855,0.0145	-2761.06
0.9922,0.0078	-2746.90
0.9915,0.0085	-2751.79
0.9981,0.0019	-2740.17
0.9732,0.0268	-2776.91
0.9844,0.0156	-2752.82
0.9843,0.0157	-2765.27
0.9914,0.0086	-2756.55
0.9915,0.0085	-2756.55
0.9981,0.0019	-2740.17
0.9748,0.0252	-2773.23
0.9872,0.0128	-2756.68
0.9825,0.0175	-2761.27
0.9911,0.0089	-2765.97
0.9915,0.0085	-2751.79
0.9981,0.0019	-2740.19
0.9773,0.0227	-2765.65
0.9826,0.0174	-2765.29
0.9824,0.0176	-2761.27
0.9907,0.0093	-2770.53
0.9918,0.0082	-2756.56
0.9982,0.0018	-2740.17
0.9742,0.0258	-2762.37
0.9840,0.0160	-2757.03
0.9773,0.0227	-2765.65
0.9921,0.0079	-2751.75
0.9910,0.0090	-2747.13
0.9981,0.0019	-2740.18
0.9768,0.0232	-2773.18
0.9856,0.0144	-2756.83
0.9820,0.0180	-2761.32
0.9917,0.0083	-2751.77
0.9885,0.0115	-2747.69
0.9979,0.0021	-2746.41
0.9747,0.0253	-2769.59
0.9852,0.0148	-2765.28
0.9818,0.0182	-2757.34
0.9916,0.0084	-2756.55
0.9876,0.0124	-2752.27
0.9981,0.0019	-2746.44
0.9808,0.0192	-2765.37
0.9859,0.0141	-2748.30
0.9865,0.0135	-2748.16
0.9918,0.0082	-2751.77
0.9877,0.0123	-2756.64
0.9984,0.0016	-2740.09
0.9828,0.0172	-2749.10
0.9833,0.0167	-2781.58
0.9867,0.0133	-2761.03
0.9933,0.0067	-2756.69
0.9870,0.0130	-2769.68
0.9981,0.0019	-2740.17
0.9834,0.0166	-2753.03
0.9858,0.0142	-2756.81
0.9885,0.0115	-2756.59
0.9924,0.0076	-2746.86
0.9847,0.0153	-2748.60
0.9983,0.0017	-2740.11
0.9836,0.0164	-2761.17
0.9863,0.0137	-2752.48
0.9878,0.0122	-2752.24
0.9909,0.0091	-2742.45
0.9850,0.0150	-2756.91
0.9983,0.0017	-2740.11
0.9850,0.0150	-2748.53
0.9866,0.0134	-2752.44
0.9887,0.0113	-2778.93
0.9915,0.0085	-2747.03
0.9853,0.0147	-2752.66
0.9986,0.0014	-2740.01
0.9881,0.0119	-2752.19
0.9868,0.0132	-2761.03
0.9899,0.0101	-2751.96
0.9888,0.0112	-2765.54
0.9861,0.0139	-2765.31
0.9989,0.0011	-2746.74
0.9840,0.0160	-2757.03
0.9856,0.0144	-2756.83
0.9911,0.0089	-2747.11
0.9906,0.0094	-2765.84
0.9894,0.0106	-2742.94
0.9991,0.0009	-2739.86
0.9879,0.0121	-2752.22
0.9810,0.0190	-2769.30
0.9891,0.0109	-2756.56
0.9912,0.0088	-2761.26
0.9884,0.0116	-2756.59
0.9992,0.0008	-2746.93
0.9877,0.0123	-2752.25
0.9769,0.0231	-2773.18
0.9869,0.0131	-2761.03
0.9907,0.0093	-2756.53
0.9881,0.0119	-2769.87
0.9992,0.0008	-2739.84
0.9861,0.0139	-2752.52
0.9752,0.0248	-2762.20
0.9889,0.0111	-2747.60
0.9904,0.0096	-2761.17
0.9876,0.0124	-2752.27
0.9992,0.0008	-2739.84
0.9886,0.0114	-2752.13
0.9771,0.0229	-2758.17
0.9904,0.0096	-2747.26
0.9876,0.0124	-2756.65
0.9872,0.0128	-2756.68
0.9990,0.0010	-2739.88
0.9893,0.0107	-2742.98
0.9783,0.0217	-2765.55
0.9893,0.0107	-2742.96
0.9867,0.0133	-2765.34
0.9861,0.0139	-2761.04
0.9991,0.0009	-2739.88
0.9910,0.0090	-2747.12
0.9757,0.0243	-2758.44
0.9876,0.0124	-2765.40
0.9865,0.0135	-2761.04
0.9879,0.0121	-2761.03
0.9991,0.0009	-2739.86
0.9921,0.0079	-2746.91
0.9841,0.0159	-2748.77
0.9889,0.0111	-2756.57
0.9884,0.0116	-2756.60
0.9875,0.0125	-2769.77
0.9990,0.0010	-2746.83
0.9938,0.0062	-2751.70
0.9851,0.0149	-2752.70
0.9868,0.0132	-2761.03
0.9869,0.0131	-2743.74
0.9897,0.0103	-2747.41
0.9993,0.0007	-2739.82
0.9932,0.0068	-2741.73
0.9856,0.0144	-2748.38
0.9849,0.0151	-2781.99
0.9873,0.0127	-2747.96
0.9863,0.0137	-2756.77
0.9991,0.0009	-2739.85
0.9927,0.0073	-2746.80
0.9856,0.0144	-2756.83
0.9880,0.0120	-2743.38
0.9855,0.0145	-2756.85
0.9852,0.0148	-2756.88
0.9992,0.0008	-2739.83
0.9921,0.0079	-2751.75
0.9839,0.0161	-2761.15
0.9874,0.0126	-2756.66
0.9851,0.0149	-2761.08
0.9830,0.0170	-2761.22
0.9993,0.0007	-2739.82
0.9918,0.0082	-2751.77
0.9822,0.0178	-2773.32
0.9868,0.0132	-2752.40
0.9824,0.0176	-2777.36
0.9882,0.0118	-2743.33
0.9993,0.0007	-2747.12
0.9927,0.0073	-2746.80
0.9803,0.0197	-2757.59
0.9897,0.0103	-2756.54
0.9832,0.0168	-2761.21
0.9881,0.0119	-2756.61
0.9994,0.0006	-2739.76
0.9928,0.0072	-2741.85
0.9788,0.0212	-2757.84
0.9904,0.0096	-2742.63
0.9835,0.0165	-2761.18
0.9908,0.0092	-2765.89
0.9992,0.0008	-2739.84
0.9925,0.0075	-2751.73
0.9741,0.0259	-2762.38
0.9934,0.0066	-2756.71
0.9823,0.0177	-2765.30
0.9930,0.0070	-2741.79
0.9991,0.0009	-2739.85
0.9936,0.0064	-2746.65
0.9741,0.0259	-2758.75
0.9921,0.0079	-2742.08
0.9856,0.0144	-2765.29
0.9919,0.0081	-2751.76
0.9990,0.0010	-2739.89
0.9941,0.0059	-2746.57
0.9754,0.0246	-2769.53
0.9924,0.0076	-2741.99
0.9846,0.0154	-2769.43
0.9930,0.0070	-2746.74
0.9988,0.0012	-2739.96
0.9934,0.0066	-2751.70
0.9691,0.0309	-2759.84
0.9923,0.0077	-2751.73
0.9848,0.0152	-2761.10
0.9932,0.0068	-2751.70
0.9988,0.0012	-2739.97
0.9934,0.0066	-2746.68
0.9672,0.0328	-2770.43
0.9930,0.0070	-2741.80
0.9871,0.0129	-2761.03
0.9938,0.0062	-2756.77
0.9987,0.0013	-2739.98
0.9946,0.0054	-2751.72
0.9666,0.0334	-2797.45
0.9925,0.0075	-2741.96
0.9882,0.0118	-2756.61
0.9933,0.0067	-2746.71
0.9990,0.0010	-2739.88
0.9932,0.0068	-2741.73
0.9700,0.0300	-2770.08
0.9931,0.0069	-2741.77
0.9880,0.0120	-2769.85
0.9935,0.0065	-2751.70
0.9991,0.0009	-2739.87
0.9933,0.0067	-2751.70
0.9684,0.0316	-2770.27
0.9940,0.0060	-2746.59
0.9905,0.0095	-2756.53
0.9937,0.0063	-2746.63
0.9989,0.0011	-2739.94
0.9934,0.0066	-2746.69
0.9655,0.0345	-2787.34
0.9947,0.0053	-2746.49
0.9900,0.0100	-2742.76
0.9929,0.0071	-2746.77
0.9989,0.0011	-2739.94
0.9912,0.0088	-2751.82
0.9713,0.0287	-2769.91
0.9947,0.0053	-2746.49
0.9893,0.0107	-2752.02
0.9925,0.0075	-2746.84
0.9987,0.0013	-2739.98
0.9922,0.0078	-2751.74
0.9723,0.0277	-2773.37
0.9956,0.0044	-2740.96
0.9897,0.0103	-2770.24
0.9933,0.0067	-2741.69
0.9986,0.0014	-2746.60
0.9938,0.0062	-2756.77
0.9740,0.0260	-2780.52
0.9964,0.0036	-2751.97
0.9891,0.0109	-2743.04
0.9940,0.0060	-2746.59
0.9983,0.0017	-2740.11
0.9926,0.0074	-2756.62
0.9787,0.0213	-2761.69
0.9961,0.0039	-2746.35
0.9871,0.0129	-2748.02
0.9945,0.0055	-2741.32
0.9978,0.0022	-2740.28
0.9937,0.0063	-2741.57
0.9732,0.0268	-2762.54
0.9962,0.0038	-2757.51
0.9876,0.0124	-2761.03
0.9943,0.0057	-2741.39
0.9978,0.0022	-2740.28
0.9941,0.0059	-2741.45
0.9753,0.0247	-2769.54
0.9955,0.0045	-2741.00
0.9843,0.0157	-2761.13
0.9929,0.0071	-2746.78
0.9979,0.0021	-2740.25
0.9947,0.0053	-2741.25
0.9766,0.0234	-2758.26
0.9960,0.0040	-2740.85
0.9860,0.0140	-2752.53
0.9938,0.0062	-2746.62
0.9981,0.0019	-2746.44
0.9951,0.0049	-2746.44
0.9779,0.0221	-2758.00
0.9960,0.0040	-2751.87
0.9860,0.0140	-2752.54
0.9946,0.0054	-2746.51
0.9977,0.0023	-2740.31
0.9949,0.0051	-2751.74
0.9765,0.0235	-2776.91
0.9957,0.0043	-2751.82
0.9855,0.0145	-2744.19
0.9949,0.0051	-2741.20
0.9978,0.0022	-2740.29
0.9963,0.0037	-2746.35
0.9800,0.0200	-2761.53
0.9952,0.0048	-2746.43
0.9876,0.0124	-2752.27
0.9943,0.0057	-2746.55
0.9976,0.0024	-2740.32
0.9963,0.0037	-2746.35
0.9767,0.0233	-2791.86
0.9958,0.0042	-2746.38
0.9890,0.0110	-2747.58
0.9936,0.0064	-2751.70
0.9980,0.0020	-2746.43
0.9966,0.0034	-2740.65
0.9814,0.0186	-2753.44
0.9949,0.0051	-2746.47
0.9857,0.0143	-2752.59
0.9937,0.0063	-2751.70
0.9976,0.0024	-2740.35
0.9974,0.0026	-2740.39
0.9794,0.0206	-2753.87
0.9949,0.0051	-2757.02
0.9812,0.0188	-2749.54
0.9950,0.0050	-2741.17
0.9971,0.0029	-2746.34
0.9977,0.0023	-2752.43
0.9840,0.0160	-2765.27
0.9949,0.0051	-2741.20
0.9839,0.0161	-2773.49
0.9953,0.0047	-2741.08
0.9975,0.0025	-2758.36
0.9975,0.0025	-2746.36
0.9807,0.0193	-2753.59
0.9948,0.0052	-2746.47
0.9848,0.0152	-2748.60
0.9959,0.0041	-2751.86
0.9975,0.0025	-2740.36
0.9978,0.0022	-2740.28
0.9782,0.0218	-2780.78
0.9945,0.0055	-2741.33
0.9842,0.0158	-2748.73
0.9957,0.0043	-2740.94
0.9976,0.0024	-2740.35
0.9980,0.0020	-2740.22
0.9813,0.0187	-2765.34
0.9946,0.0054	-2741.29
0.9850,0.0150	-2756.90
0.9948,0.0052	-2746.48
0.9976,0.0024	-2740.34
0.9970,0.0030	-2740.51
0.9826,0.0174	-2757.22
0.9939,0.0061	-2746.60
0.9824,0.0176	-2753.24
0.9951,0.0049	-2741.13
0.9976,0.0024	-2740.34
0.9972,0.0028	-2746.34
0.9787,0.0213	-2765.52
0.9920,0.0080	-2756.57
0.9828,0.0172	-2757.19
0.9945,0.0055	-2741.31
0.9982,0.0018	-2740.14
0.9966,0.0034	-2740.67
0.9824,0.0176	-2773.34
0.9909,0.0091	-2742.46
0.9740,0.0260	-2769.64
0.9948,0.0052	-2741.22
0.9979,0.0021	-2740.24
0.9951,0.0049	-2741.13
0.9780,0.0220	-2758.00
0.9896,0.0104	-2765.66
0.9782,0.0218	-2765.56
0.9949,0.0051	-2751.74
0.9981,0.0019	-2746.45
0.9957,0.0043	-2746.38
0.9743,0.0257	-2762.35
0.9905,0.0095	-2742.60
0.9724,0.0276	-2766.24
0.9932,0.0068	-2751.70
0.9980,0.0020	-2740.21
0.9961,0.0039	-2751.91
0.9723,0.0277	-2769.81
0.9895,0.0105	-2742.90
0.9635,0.0365	-2787.36
0.9937,0.0063	-2756.76
0.9979,0.0021	-2746.41
0.9963,0.0037	-2746.35
0.9769,0.0231	-2769.43
0.9896,0.0104	-2747.42
0.9715,0.0285	-2776.95
0.9934,0.0066	-2751.70
0.9974,0.0026	-2740.40
0.9966,0.0034	-2740.65
0.9739,0.0261	-2766.04
0.9876,0.0124	-2747.88
0.9677,0.0323	-2783.97
0.9947,0.0053	-2741.27
0.9973,0.0027	-2746.35
0.9967,0.0033	-2740.64
0.9725,0.0275	-2766.22
0.9870,0.0130	-2761.03
0.9623,0.0377	-2780.91
0.9944,0.0056	-2741.35
0.9962,0.0038	-2746.35
0.9969,0.0031	-2740.55
0.9703,0.0297	-2773.52
0.9822,0.0178	-2757.29
0.9642,0.0358	-2767.59
0.9944,0.0056	-2751.71
0.9960,0.0040	-2740.85
0.9972,0.0028	-2740.47
0.9676,0.0324	-2756.79
0.9824,0.0176	-2749.22
0.9643,0.0357	-2767.57
0.9938,0.0062	-2746.62
0.9955,0.0045	-2751.81
0.9967,0.0033	-2746.33
0.9727,0.0273	-2759.06
0.9834,0.0166	-2761.19
0.9698,0.0302	-2780.50
0.9946,0.0054	-2746.50
0.9964,0.0036	-2746.34
0.9971,0.0029	-2746.34
0.9672,0.0328	-2760.29
0.9823,0.0177	-2757.27
0.9700,0.0300	-2770.08
0.9949,0.0051	-2751.74
0.9972,0.0028	-2740.46
0.9971,0.0029	-2740.50
0.9730,0.0270	-2766.16
0.9812,0.0188	-2769.30
0.9727,0.0273	-2766.19
0.9957,0.0043	-2751.83
0.9972,0.0028	-2752.20
0.9971,0.0029	-2740.51
0.9720,0.0280	-2769.84
0.9806,0.0194	-2761.46
0.9723,0.0277	-2769.81
0.9956,0.0044	-2751.81
0.9973,0.0027	-2740.44
0.9972,0.0028	-2740.45
0.9724,0.0276	-2769.80
0.9799,0.0201	-2765.43
0.9670,0.0330	-2773.85
0.9947,0.0053	-2746.49
0.9972,0.0028	-2746.34
0.9976,0.0024	-2740.35
0.9729,0.0271	-2769.75
0.9756,0.0244	-2776.89
0.9588,0.0412	-2762.36
0.9934,0.0066	-2746.68
0.9976,0.0024	-2740.34
0.9974,0.0026	-2740.40
0.9716,0.0284	-2787.55
0.9741,0.0259	-2766.01
0.9599,0.0401	-2765.25
0.9940,0.0060	-2751.70
0.9984,0.0016	-2740.07
0.9975,0.0025	-2740.36
0.9753,0.0247	-2762.19
0.9763,0.0237	-2754.59
0.9627,0.0373	-2787.38
0.9943,0.0057	-2751.71
0.9987,0.0013	-2740.01
0.9976,0.0024	-2746.37
0.9769,0.0231	-2754.45
0.9776,0.0224	-2746.75
0.9670,0.0330	-2767.09
0.9955,0.0045	-2740.99
0.9986,0.0014	-2740.01
0.9972,0.0028	-2740.47
0.9757,0.0243	-2769.51
0.9830,0.0170	-2749.05
0.9661,0.0339	-2783.99
0.9955,0.0045	-2751.81
0.9984,0.0016	-2740.09
0.9974,0.0026	-2740.42
0.9787,0.0213	-2757.86
0.9806,0.0194	-2769.30
0.9648,0.0352	-2774.10
0.9964,0.0036	-2740.71
0.9985,0.0015	-2740.05
0.9972,0.0028	-2746.34
0.9768,0.0232	-2784.40
0.9810,0.0190	-2761.42
0.9660,0.0340	-2787.34
0.9968,0.0032	-2746.33
0.9987,0.0013	-2753.23
0.9968,0.0032	-2740.60
0.9752,0.0248	-2773.22
0.9782,0.0218	-2757.95
0.9624,0.0376	-2771.17
0.9967,0.0033	-2740.61
0.9985,0.0015	-2753.03
0.9972,0.0028	-2740.47
0.9791,0.0209	-2765.49
0.9801,0.0199	-2753.72
0.9652,0.0348	-2770.73
0.9972,0.0028	-2740.48
0.9986,0.0014	-2753.17
0.9975,0.0025	-2746.36
0.9800,0.0200	-2753.74
0.9807,0.0193	-2753.59
0.9638,0.0362	-2770.94
0.9975,0.0025	-2740.36
0.9987,0.0013	-2739.99
0.9976,0.0024	-2740.35
0.9751,0.0249	-2765.88
0.9822,0.0178	-2761.29
0.9563,0.0437	-2763.00
0.9975,0.0025	-2740.38
0.9984,0.0016	-2740.10
0.9977,0.0023	-2740.32
0.9719,0.0281	-2755.67
0.9831,0.0169	-2761.22
0.9448,0.0552	-2763.30
0.9974,0.0026	-2746.36
0.9987,0.0013	-2739.99
0.9974,0.0026	-2740.40
0.9730,0.0270	-2787.66
0.9809,0.0191	-2757.48
0.9453,0.0547	-2794.50
0.9979,0.0021	-2746.42
0.9986,0.0014	-2740.03
0.9980,0.0020	-2752.62
0.9724,0.0276	-2762.68
0.9829,0.0171	-2761.23
0.9530,0.0470	-2772.92
0.9982,0.0018	-2740.14
0.9987,0.0013	-2739.99
0.9977,0.0023	-2740.30
0.9680,0.0320	-2777.15
0.9776,0.0224	-2765.62
0.9502,0.0498	-2776.43
0.9984,0.0016	-2740.08
0.9986,0.0014	-2740.02
0.9975,0.0025	-2746.36
0.9685,0.0315	-2777.11
0.9772,0.0228	-2773.17
0.9520,0.0480	-2788.05
0.9987,0.0013	-2739.99
0.9985,0.0015	-2740.07
0.9976,0.0024	-2752.38
0.9717,0.0283	-2766.34
0.9719,0.0281	-2762.76
0.9503,0.0497	-2779.36
0.9985,0.0015	-2740.04
0.9985,0.0015	-2746.55
0.9980,0.0020	-2740.21
0.9732,0.0268	-2773.31
0.9760,0.0240	-2776.90
0.9476,0.0524	-2776.93
0.9985,0.0015	-2740.07
0.9984,0.0016	-2740.09
0.9978,0.0022	-2746.39
0.9695,0.0305	-2777.05
0.9715,0.0285	-2766.36
0.9621,0.0379	-2764.76
0.9989,0.0011	-2739.94
0.9983,0.0017	-2752.86
0.9968,0.0032	-2752.07
0.9723,0.0277	-2773.37
0.9755,0.0245	-2765.84
0.9661,0.0339	-2787.34
0.9989,0.0011	-2739.93
0.9984,0.0016	-2740.09
0.9964,0.0036	-2746.34
0.9708,0.0292	-2798.01
0.9699,0.0301	-2770.08
0.9651,0.0349	-2787.34
0.9988,0.0012	-2739.95
0.9981,0.0019	-2740.17
0.9964,0.0036	-2740.71
0.9746,0.0254	-2773.24
0.9820,0.0180	-2769.31
0.9606,0.0394	-2768.29
0.9989,0.0011	-2746.74
0.9985,0.0015	-2740.05
0.9965,0.0035	-2740.69
0.9712,0.0288	-2780.49
0.9795,0.0205	-2777.06
0.9620,0.0380	-2764.78
0.9989,0.0011	-2746.73
0.9987,0.0013	-2739.99
0.9958,0.0042	-2740.91
0.9739,0.0261	-2755.19
0.9762,0.0238	-2773.19
0.9764,0.0236	-2765.74
0.9990,0.0010	-2739.89
0.9989,0.0011	-2746.74
0.9961,0.0039	-2751.90
0.9718,0.0282	-2776.94
0.9740,0.0260	-2762.40
0.9768,0.0232	-2758.22
0.9989,0.0011	-2739.94
0.9988,0.0012	-2739.96
0.9963,0.0037	-2746.34
0.9677,0.0323	-2777.17
0.9754,0.0246	-2758.50
0.9781,0.0219	-2757.98
0.9988,0.0012	-2739.96
0.9987,0.0013	-2746.65
0.9960,0.0040	-2746.36
0.9697,0.0303	-2763.17
0.9771,0.0229	-2754.40
0.9762,0.0238	-2758.34
0.9989,0.0011	-2760.35
0.9988,0.0012	-2739.97
0.9961,0.0039	-2740.81
0.9691,0.0309	-2783.97
0.9745,0.0255	-2791.46
0.9737,0.0263	-2758.85
0.9991,0.0009	-2739.86
0.9983,0.0017	-2746.50
0.9966,0.0034	-2746.34
0.9737,0.0263	-2755.23
0.9722,0.0278	-2769.83
0.9786,0.0214	-2773.17
0.9991,0.0009	-2739.88
0.9985,0.0015	-2740.06
0.9971,0.0029	-2746.34
0.9802,0.0198	-2765.40
0.9776,0.0224	-2776.94
0.9787,0.0213	-2765.52
0.9990,0.0010	-2739.90
0.9985,0.0015	-2740.05
0.9957,0.0043	-2740.93
0.9778,0.0222	-2754.24
0.9759,0.0241	-2780.60
0.9766,0.0234	-2758.25
0.9987,0.0013	-2739.99
0.9990,0.0010	-2739.90
0.9959,0.0041	-2746.37
0.9757,0.0243	-2773.20
0.9749,0.0251	-2758.58
0.9738,0.0262	-2758.82
0.9989,0.0011	-2739.93
0.9990,0.0010	-2746.79
0.9960,0.0040	-2740.85
0.9760,0.0240	-2754.67
0.9822,0.0178	-2753.27
0.9718,0.0282	-2762.78
0.9989,0.0011	-2739.93
0.9992,0.0008	-2739.84
0.9964,0.0036	-2740.72
0.9790,0.0210	-2753.96
0.9801,0.0199	-2781.00
0.9741,0.0259	-2758.76
