#isoforms=['ENSG00000186575.SE.4.A.up_ENSG00000186575.SE.4.A.SE1_ENSG00000186575.SE.4.A.dn','ENSG00000186575.SE.4.B.up_ENSG00000186575.SE.4.B.dn']	exon_lens=('ENSG00000186575.SE.4.A.up',128),('ENSG00000186575.SE.4.A.SE1',163),('ENSG00000186575.SE.4.A.dn',3847),('ENSG00000186575.SE.4.B.up',128),('ENSG00000186575.SE.4.B.dn',194)	iters=5000	burn_in=500	lag=10	percent_accept=95.94	proposal_type=drift	counts=(0,0):1071,(1,0):2588,(1,1):118	assigned_counts=0:2706	chrom=chr22	strand=+	mRNA_starts=29678196,29678196	mRNA_ends=29698598,29694945
sampled_psi	log_score
0.9281,0.0719	-22498.69
0.9434,0.0566	-22489.45
0.8984,0.1016	-22529.65
0.9652,0.0348	-22494.58
0.9646,0.0354	-22481.34
0.9734,0.0266	-22480.55
0.9460,0.0540	-22497.81
0.9396,0.0604	-22487.06
0.9224,0.0776	-22504.05
0.9660,0.0340	-22494.60
0.9607,0.0393	-22488.15
0.9679,0.0321	-22477.62
0.9471,0.0529	-22489.12
0.9379,0.0621	-22514.41
0.9221,0.0779	-22506.54
0.9696,0.0304	-22484.33
0.9653,0.0347	-22487.93
0.9609,0.0391	-22478.53
0.9489,0.0511	-22491.89
0.9302,0.0698	-22490.79
0.9378,0.0622	-22498.12
0.9695,0.0305	-22480.88
0.9709,0.0291	-22487.77
0.9536,0.0464	-22500.70
0.9491,0.0509	-22497.73
0.9277,0.0723	-22498.72
0.9273,0.0727	-22508.93
0.9702,0.0298	-22480.81
0.9687,0.0313	-22480.95
0.9469,0.0531	-22503.54
0.9619,0.0381	-22491.31
0.9331,0.0669	-22498.38
0.9056,0.0944	-22507.36
0.9660,0.0340	-22477.87
0.9688,0.0312	-22487.81
0.9420,0.0580	-22486.79
0.9676,0.0324	-22477.66
0.9419,0.0581	-22492.37
0.9152,0.0848	-22499.68
0.9678,0.0322	-22487.84
0.9650,0.0350	-22481.31
0.9423,0.0577	-22506.31
0.9715,0.0285	-22487.76
0.9369,0.0631	-22498.17
0.9327,0.0673	-22487.88
0.9672,0.0328	-22484.48
0.9566,0.0434	-22494.58
0.9407,0.0593	-22509.05
0.9674,0.0326	-22487.85
0.9476,0.0524	-22483.29
0.9319,0.0681	-22511.53
0.9716,0.0284	-22484.23
0.9583,0.0417	-22491.42
0.9355,0.0645	-22495.57
0.9633,0.0367	-22484.75
0.9524,0.0476	-22494.69
0.9190,0.0810	-22509.08
0.9700,0.0300	-22480.83
0.9636,0.0364	-22484.73
0.9449,0.0551	-22500.68
0.9708,0.0292	-22473.75
0.9597,0.0403	-22481.87
0.9223,0.0777	-22501.58
0.9660,0.0340	-22481.21
0.9653,0.0347	-22481.28
0.9452,0.0548	-22500.68
0.9607,0.0393	-22484.96
0.9694,0.0306	-22484.34
0.9288,0.0712	-22501.21
0.9714,0.0286	-22480.71
0.9621,0.0379	-22481.60
0.9504,0.0496	-22488.85
0.9629,0.0371	-22491.29
0.9715,0.0285	-22491.29
0.9251,0.0749	-22501.41
0.9725,0.0275	-22484.19
0.9641,0.0359	-22481.40
0.9629,0.0371	-22488.03
0.9661,0.0339	-22487.90
0.9703,0.0297	-22480.81
0.9255,0.0745	-22493.83
0.9758,0.0242	-22487.76
0.9666,0.0334	-22484.51
0.9636,0.0364	-22484.73
0.9628,0.0372	-22478.27
0.9704,0.0296	-22487.78
0.9363,0.0637	-22495.51
0.9784,0.0216	-22480.19
0.9667,0.0333	-22487.88
0.9514,0.0486	-22497.69
0.9645,0.0355	-22487.96
0.9731,0.0269	-22480.57
0.9364,0.0636	-22495.51
0.9786,0.0214	-22491.65
0.9680,0.0320	-22494.66
0.9442,0.0558	-22489.38
0.9624,0.0376	-22484.81
0.9728,0.0272	-22477.02
0.9444,0.0556	-22497.85
0.9794,0.0206	-22480.14
0.9681,0.0319	-22508.31
0.9375,0.0625	-22503.56
0.9595,0.0405	-22500.88
0.9712,0.0288	-22491.28
0.9398,0.0602	-22506.28
0.9828,0.0172	-22475.93
0.9635,0.0365	-22494.55
0.9195,0.0805	-22499.33
0.9564,0.0436	-22491.50
0.9741,0.0259	-22484.12
0.9447,0.0553	-22497.85
0.9896,0.0104	-22479.96
0.9631,0.0369	-22501.07
0.9179,0.0821	-22506.70
0.9536,0.0464	-22494.65
0.9769,0.0231	-22476.55
0.9522,0.0478	-22494.69
0.9906,0.0094	-22480.01
0.9542,0.0458	-22488.56
0.9416,0.0584	-22500.74
0.9565,0.0435	-22494.58
0.9754,0.0246	-22473.03
0.9487,0.0513	-22491.91
0.9901,0.0099	-22470.78
0.9692,0.0308	-22487.80
0.9348,0.0652	-22500.94
0.9595,0.0405	-22485.05
0.9741,0.0259	-22487.75
0.9382,0.0618	-22503.55
0.9901,0.0099	-22475.37
0.9699,0.0301	-22487.79
0.9338,0.0662	-22498.34
0.9655,0.0345	-22477.92
0.9692,0.0308	-22480.90
0.9479,0.0521	-22494.86
0.9913,0.0087	-22480.06
0.9743,0.0257	-22480.47
0.9433,0.0567	-22492.27
0.9548,0.0452	-22488.52
0.9721,0.0279	-22480.65
0.9479,0.0521	-22497.76
0.9910,0.0090	-22475.34
0.9717,0.0283	-22484.22
0.9540,0.0460	-22488.58
0.9661,0.0339	-22484.55
0.9650,0.0350	-22487.94
0.9538,0.0462	-22500.70
0.9904,0.0096	-22480.00
0.9711,0.0289	-22494.80
0.9554,0.0446	-22500.74
0.9692,0.0308	-22480.90
0.9645,0.0355	-22481.36
0.9484,0.0516	-22503.57
0.9888,0.0112	-22470.97
0.9715,0.0285	-22487.76
0.9594,0.0406	-22494.55
0.9656,0.0344	-22481.25
0.9663,0.0337	-22481.18
0.9398,0.0602	-22503.53
0.9850,0.0150	-22475.73
0.9807,0.0193	-22487.92
0.9553,0.0447	-22500.73
0.9546,0.0454	-22500.72
0.9671,0.0329	-22494.63
0.9344,0.0656	-22500.96
0.9843,0.0157	-22475.80
0.9805,0.0195	-22483.99
0.9385,0.0615	-22498.09
0.9461,0.0539	-22492.08
0.9645,0.0355	-22494.57
0.9359,0.0641	-22508.95
0.9871,0.0129	-22475.56
0.9817,0.0183	-22484.00
0.9261,0.0739	-22508.94
0.9502,0.0498	-22500.66
0.9664,0.0336	-22494.61
0.9155,0.0845	-22504.42
0.9896,0.0104	-22479.96
0.9854,0.0146	-22479.91
0.9465,0.0535	-22497.79
0.9498,0.0502	-22497.72
0.9685,0.0315	-22484.39
0.9169,0.0831	-22504.34
0.9883,0.0117	-22471.05
0.9836,0.0164	-22479.95
0.9432,0.0568	-22492.28
0.9517,0.0483	-22488.74
0.9689,0.0311	-22480.94
0.9244,0.0756	-22503.96
0.9888,0.0112	-22470.96
0.9851,0.0149	-22471.54
0.9444,0.0556	-22497.86
0.9449,0.0551	-22495.00
0.9674,0.0326	-22494.64
0.9347,0.0653	-22498.28
0.9865,0.0135	-22475.61
0.9873,0.0127	-22475.55
0.9512,0.0488	-22500.67
0.9413,0.0587	-22500.74
0.9709,0.0291	-22484.26
0.9389,0.0611	-22492.61
0.9862,0.0138	-22479.90
0.9879,0.0121	-22479.91
0.9594,0.0406	-22488.22
0.9433,0.0567	-22497.89
0.9693,0.0307	-22480.90
0.9455,0.0545	-22500.67
0.9832,0.0168	-22471.83
0.9844,0.0156	-22488.22
0.9551,0.0449	-22485.44
0.9378,0.0622	-22489.99
0.9686,0.0314	-22494.68
0.9495,0.0505	-22500.66
0.9822,0.0178	-22471.98
0.9851,0.0149	-22479.92
0.9378,0.0622	-22498.13
0.9425,0.0575	-22511.91
0.9692,0.0308	-22487.80
0.9631,0.0369	-22488.03
0.9827,0.0173	-22479.98
0.9886,0.0114	-22479.92
0.9493,0.0507	-22497.73
0.9476,0.0524	-22486.18
0.9726,0.0274	-22484.18
0.9616,0.0384	-22491.32
0.9872,0.0128	-22475.56
0.9877,0.0123	-22471.13
0.9430,0.0570	-22492.29
0.9536,0.0464	-22488.61
0.9761,0.0239	-22498.89
0.9605,0.0395	-22491.35
0.9878,0.0122	-22475.51
0.9884,0.0116	-22475.47
0.9345,0.0655	-22498.30
0.9589,0.0411	-22488.25
0.9787,0.0213	-22484.00
0.9647,0.0353	-22491.26
0.9877,0.0123	-22471.13
0.9898,0.0102	-22475.39
0.9493,0.0507	-22497.73
0.9566,0.0434	-22494.58
0.9816,0.0184	-22476.05
0.9644,0.0356	-22491.27
0.9878,0.0122	-22475.52
0.9908,0.0092	-22480.02
0.9549,0.0451	-22500.72
0.9593,0.0407	-22497.71
0.9774,0.0226	-22472.72
0.9652,0.0348	-22491.26
0.9870,0.0130	-22475.57
0.9912,0.0088	-22480.06
0.9604,0.0396	-22484.98
0.9622,0.0378	-22494.54
0.9771,0.0229	-22476.52
0.9697,0.0303	-22484.32
0.9839,0.0161	-22471.72
0.9903,0.0097	-22470.74
0.9561,0.0439	-22509.99
0.9597,0.0403	-22494.55
0.9749,0.0251	-22484.09
0.9695,0.0305	-22491.25
0.9815,0.0185	-22484.00
0.9887,0.0113	-22475.45
0.9582,0.0418	-22500.82
0.9632,0.0368	-22478.23
0.9634,0.0366	-22494.55
0.9732,0.0268	-22480.56
0.9867,0.0133	-22471.29
0.9895,0.0105	-22475.41
0.9631,0.0369	-22488.03
0.9638,0.0362	-22504.41
0.9654,0.0346	-22491.25
0.9756,0.0244	-22487.76
0.9831,0.0169	-22475.90
0.9891,0.0109	-22475.43
0.9551,0.0449	-22503.78
0.9518,0.0482	-22491.72
0.9530,0.0470	-22494.67
0.9747,0.0253	-22480.44
0.9797,0.0203	-22495.63
0.9843,0.0157	-22475.80
0.9567,0.0433	-22497.68
0.9615,0.0385	-22488.10
0.9537,0.0463	-22482.55
0.9719,0.0281	-22484.21
0.9860,0.0140	-22479.90
0.9854,0.0146	-22484.12
0.9581,0.0419	-22497.69
0.9618,0.0382	-22491.32
0.9559,0.0441	-22509.97
0.9767,0.0233	-22476.57
0.9860,0.0140	-22475.65
0.9855,0.0145	-22471.47
0.9541,0.0459	-22491.60
0.9613,0.0387	-22491.33
0.9597,0.0403	-22485.04
0.9698,0.0302	-22480.85
0.9809,0.0191	-22476.12
0.9844,0.0156	-22488.21
0.9619,0.0381	-22494.54
0.9569,0.0431	-22497.68
0.9569,0.0431	-22494.58
0.9692,0.0308	-22487.80
0.9816,0.0184	-22480.02
0.9834,0.0166	-22471.80
0.9679,0.0321	-22477.62
0.9532,0.0468	-22488.63
0.9615,0.0385	-22481.68
0.9612,0.0388	-22491.33
0.9824,0.0176	-22492.06
0.9834,0.0166	-22484.04
0.9638,0.0362	-22487.99
0.9584,0.0416	-22500.83
0.9516,0.0484	-22479.82
0.9596,0.0404	-22488.21
0.9820,0.0180	-22472.01
0.9884,0.0116	-22471.03
0.9581,0.0419	-22491.43
0.9542,0.0458	-22482.49
0.9503,0.0497	-22500.66
0.9670,0.0330	-22481.11
0.9758,0.0242	-22480.36
0.9913,0.0087	-22480.06
0.9594,0.0406	-22494.55
0.9646,0.0354	-22487.96
0.9422,0.0578	-22503.52
0.9667,0.0333	-22487.88
0.9755,0.0245	-22484.07
0.9908,0.0092	-22470.66
0.9597,0.0403	-22488.21
0.9632,0.0368	-22488.02
0.9521,0.0479	-22479.75
0.9673,0.0327	-22487.86
0.9803,0.0197	-22487.90
0.9874,0.0126	-22479.90
0.9644,0.0356	-22487.97
0.9647,0.0353	-22484.65
0.9549,0.0451	-22485.46
0.9663,0.0337	-22497.96
0.9826,0.0174	-22488.05
0.9868,0.0132	-22475.59
0.9563,0.0437	-22488.42
0.9621,0.0379	-22475.15
0.9542,0.0458	-22494.64
0.9668,0.0332	-22504.73
0.9845,0.0155	-22475.78
0.9859,0.0141	-22479.91
0.9627,0.0373	-22491.30
0.9586,0.0414	-22494.55
0.9523,0.0477	-22491.70
0.9676,0.0324	-22498.04
0.9843,0.0157	-22475.80
0.9843,0.0157	-22484.07
0.9652,0.0348	-22494.58
0.9628,0.0372	-22488.04
0.9553,0.0447	-22494.61
0.9729,0.0271	-22484.17
0.9832,0.0168	-22488.10
0.9806,0.0194	-22476.15
0.9618,0.0382	-22497.77
0.9653,0.0347	-22487.93
0.9609,0.0391	-22488.14
0.9724,0.0276	-22494.88
0.9754,0.0246	-22495.11
0.9782,0.0218	-22480.21
0.9580,0.0420	-22494.56
0.9594,0.0406	-22488.22
0.9685,0.0315	-22484.39
0.9673,0.0327	-22481.08
0.9784,0.0216	-22476.38
0.9720,0.0280	-22487.76
0.9580,0.0420	-22488.31
0.9491,0.0509	-22491.88
0.9671,0.0329	-22484.48
0.9667,0.0333	-22481.14
0.9761,0.0239	-22484.05
0.9728,0.0272	-22480.59
0.9448,0.0552	-22500.68
0.9433,0.0567	-22495.08
0.9557,0.0443	-22491.53
0.9666,0.0334	-22497.98
0.9753,0.0247	-22480.40
0.9742,0.0258	-22484.11
0.9245,0.0755	-22496.44
0.9479,0.0521	-22500.66
0.9620,0.0380	-22497.78
0.9668,0.0332	-22491.25
0.9776,0.0224	-22476.47
0.9714,0.0286	-22498.34
0.9377,0.0623	-22506.26
0.9524,0.0476	-22500.68
0.9659,0.0341	-22494.59
0.9672,0.0328	-22481.09
0.9822,0.0178	-22475.99
0.9702,0.0298	-22477.34
0.9431,0.0569	-22492.28
0.9353,0.0647	-22519.62
0.9666,0.0334	-22484.51
0.9622,0.0378	-22488.07
0.9855,0.0145	-22488.34
0.9804,0.0196	-22480.08
0.9497,0.0503	-22497.72
0.9255,0.0745	-22503.91
0.9740,0.0260	-22498.62
0.9525,0.0475	-22497.68
0.9866,0.0134	-22484.20
0.9823,0.0177	-22479.99
0.9585,0.0415	-22478.85
0.9332,0.0668	-22498.37
0.9744,0.0256	-22476.82
0.9374,0.0626	-22490.02
0.9840,0.0160	-22475.82
0.9863,0.0137	-22488.45
0.9598,0.0402	-22485.03
0.9290,0.0710	-22501.20
0.9704,0.0296	-22494.76
0.9365,0.0635	-22487.42
0.9867,0.0133	-22475.60
0.9883,0.0117	-22484.35
0.9585,0.0415	-22488.28
0.9159,0.0841	-22513.95
0.9667,0.0333	-22487.88
0.9504,0.0496	-22491.80
0.9866,0.0134	-22471.31
0.9893,0.0107	-22498.04
0.9587,0.0413	-22507.13
0.9224,0.0776	-22521.38
0.9654,0.0346	-22491.25
0.9591,0.0409	-22481.93
0.9848,0.0152	-22475.75
0.9884,0.0116	-22471.03
0.9716,0.0284	-22487.76
0.9273,0.0727	-22501.29
0.9689,0.0311	-22491.25
0.9569,0.0431	-22482.18
0.9874,0.0126	-22479.90
0.9890,0.0110	-22479.93
0.9684,0.0316	-22484.40
0.9088,0.0912	-22507.16
0.9750,0.0250	-22491.41
0.9556,0.0444	-22497.67
0.9901,0.0099	-22470.77
0.9888,0.0112	-22479.93
0.9729,0.0271	-22477.01
0.9013,0.0987	-22505.43
0.9655,0.0345	-22481.26
0.9639,0.0361	-22487.99
0.9880,0.0120	-22471.09
0.9886,0.0114	-22475.46
0.9677,0.0323	-22481.05
0.9126,0.0874	-22495.22
0.9669,0.0331	-22487.87
0.9683,0.0317	-22491.25
0.9865,0.0135	-22475.61
0.9861,0.0139	-22479.90
0.9747,0.0253	-22491.40
0.9205,0.0795	-22501.69
0.9653,0.0347	-22487.93
0.9686,0.0314	-22487.82
0.9875,0.0125	-22493.02
0.9832,0.0168	-22479.96
0.9769,0.0231	-22484.03
0.9145,0.0855	-22499.75
0.9627,0.0373	-22497.80
0.9754,0.0246	-22473.04
0.9869,0.0131	-22475.58
0.9833,0.0167	-22484.04
0.9794,0.0206	-22484.00
0.9151,0.0849	-22516.34
0.9659,0.0341	-22491.25
0.9713,0.0287	-22480.72
0.9870,0.0130	-22475.57
0.9814,0.0186	-22476.07
0.9751,0.0249	-22491.42
0.9146,0.0854	-22516.34
0.9666,0.0334	-22497.98
0.9711,0.0289	-22477.22
0.9875,0.0125	-22479.91
0.9837,0.0163	-22488.15
0.9783,0.0217	-22476.39
0.9028,0.0972	-22509.77
0.9673,0.0327	-22484.47
0.9709,0.0291	-22484.26
0.9892,0.0108	-22475.43
0.9825,0.0175	-22484.02
0.9816,0.0184	-22476.05
0.8855,0.1145	-22510.96
0.9805,0.0195	-22487.91
0.9750,0.0250	-22480.43
0.9903,0.0097	-22479.99
0.9772,0.0228	-22487.78
0.9787,0.0213	-22484.00
0.9099,0.0901	-22511.73
0.9802,0.0198	-22483.99
0.9726,0.0274	-22487.75
0.9915,0.0085	-22475.32
0.9829,0.0171	-22488.08
0.9805,0.0195	-22480.08
0.9168,0.0832	-22501.95
0.9753,0.0247	-22480.40
0.9739,0.0261	-22484.13
0.9906,0.0094	-22475.35
0.9801,0.0199	-22480.10
0.9849,0.0151	-22492.45
0.9184,0.0816	-22516.36
0.9681,0.0319	-22487.83
0.9744,0.0256	-22484.11
0.9907,0.0093	-22475.35
0.9840,0.0160	-22484.06
0.9873,0.0127	-22479.90
0.9399,0.0601	-22498.03
0.9678,0.0322	-22481.04
0.9743,0.0257	-22476.84
0.9907,0.0093	-22480.02
0.9781,0.0219	-22476.41
0.9892,0.0108	-22470.90
0.9420,0.0580	-22497.94
0.9609,0.0391	-22504.14
0.9787,0.0213	-22480.17
0.9914,0.0086	-22494.32
0.9813,0.0187	-22484.00
0.9894,0.0106	-22479.95
0.9521,0.0479	-22500.67
0.9486,0.0514	-22480.24
0.9816,0.0184	-22476.05
0.9914,0.0086	-22484.81
0.9773,0.0227	-22484.02
0.9884,0.0116	-22484.36
0.9356,0.0644	-22511.62
0.9374,0.0626	-22500.85
0.9788,0.0212	-22476.34
0.9908,0.0092	-22470.67
0.9705,0.0295	-22480.79
0.9889,0.0111	-22479.93
0.9161,0.0839	-22513.95
0.9364,0.0636	-22498.20
0.9796,0.0204	-22484.00
0.9919,0.0081	-22470.50
0.9671,0.0329	-22474.34
0.9873,0.0127	-22475.55
0.9180,0.0820	-22523.60
0.9398,0.0602	-22498.03
0.9803,0.0197	-22483.99
0.9910,0.0090	-22470.64
0.9668,0.0332	-22477.76
0.9864,0.0136	-22479.90
0.9152,0.0848	-22494.92
0.9357,0.0643	-22508.94
0.9799,0.0201	-22472.34
0.9904,0.0096	-22475.36
0.9681,0.0319	-22477.59
0.9861,0.0139	-22471.39
0.9276,0.0724	-22501.28
0.9395,0.0605	-22498.05
0.9810,0.0190	-22476.10
0.9891,0.0109	-22479.94
0.9711,0.0289	-22487.77
0.9865,0.0135	-22479.90
0.9286,0.0714	-22516.61
0.9360,0.0640	-22490.17
0.9790,0.0210	-22484.00
0.9902,0.0098	-22470.76
0.9680,0.0320	-22491.24
0.9887,0.0113	-22475.45
0.9241,0.0759	-22498.97
0.9359,0.0641	-22490.18
0.9792,0.0208	-22484.00
0.9918,0.0082	-22480.10
0.9725,0.0275	-22484.18
0.9900,0.0100	-22484.58
0.9235,0.0765	-22496.53
0.9412,0.0588	-22506.29
0.9794,0.0206	-22499.44
0.9904,0.0096	-22475.36
0.9733,0.0267	-22494.94
0.9881,0.0119	-22471.08
0.9361,0.0639	-22492.84
0.9475,0.0525	-22500.66
0.9789,0.0211	-22484.00
0.9901,0.0099	-22479.98
0.9726,0.0274	-22494.89
0.9825,0.0175	-22475.96
0.9301,0.0699	-22498.56
0.9578,0.0422	-22488.32
0.9792,0.0208	-22480.14
0.9897,0.0103	-22470.82
0.9801,0.0199	-22476.20
0.9762,0.0238	-22476.62
0.9230,0.0770	-22501.54
0.9470,0.0530	-22494.90
0.9774,0.0226	-22480.25
0.9884,0.0116	-22475.47
0.9839,0.0161	-22484.05
0.9771,0.0229	-22491.54
0.9241,0.0759	-22511.47
0.9560,0.0440	-22491.52
0.9801,0.0199	-22499.58
0.9900,0.0100	-22484.57
0.9872,0.0128	-22475.56
0.9742,0.0258	-22484.11
0.9292,0.0708	-22503.77
0.9562,0.0438	-22488.42
0.9773,0.0227	-22484.02
0.9906,0.0094	-22484.67
0.9840,0.0160	-22488.18
0.9678,0.0322	-22484.44
0.9413,0.0587	-22492.42
0.9500,0.0500	-22488.88
0.9793,0.0207	-22476.29
0.9897,0.0103	-22479.96
0.9812,0.0188	-22480.04
0.9725,0.0275	-22484.18
0.9364,0.0636	-22500.89
0.9537,0.0463	-22494.65
0.9762,0.0238	-22484.05
0.9898,0.0102	-22475.39
0.9771,0.0229	-22487.78
0.9771,0.0229	-22480.27
0.9454,0.0546	-22497.82
0.9485,0.0515	-22483.17
0.9771,0.0229	-22484.03
0.9896,0.0104	-22484.51
0.9783,0.0217	-22484.01
0.9749,0.0251	-22476.77
0.9446,0.0554	-22500.68
0.9459,0.0541	-22494.95
0.9724,0.0276	-22484.19
0.9900,0.0100	-22470.79
0.9767,0.0233	-22472.83
0.9804,0.0196	-22487.91
0.9418,0.0582	-22500.73
0.9508,0.0492	-22488.82
0.9790,0.0210	-22484.00
0.9896,0.0104	-22470.84
0.9780,0.0220	-22480.22
0.9759,0.0241	-22480.36
0.9343,0.0657	-22493.00
0.9635,0.0365	-22494.55
0.9730,0.0270	-22473.42
0.9884,0.0116	-22471.03
0.9773,0.0227	-22487.79
0.9766,0.0234	-22480.31
0.9407,0.0593	-22500.76
0.9625,0.0375	-22507.53
0.9710,0.0290	-22491.28
0.9892,0.0108	-22470.91
0.9776,0.0224	-22484.02
0.9763,0.0237	-22491.49
0.9507,0.0493	-22494.74
0.9593,0.0407	-22494.55
0.9689,0.0311	-22484.37
0.9898,0.0102	-22475.39
0.9833,0.0167	-22475.88
0.9746,0.0254	-22487.75
0.9468,0.0532	-22492.03
0.9555,0.0445	-22491.54
0.9721,0.0279	-22480.65
0.9910,0.0090	-22480.03
0.9789,0.0211	-22476.33
0.9644,0.0356	-22484.67
0.9399,0.0601	-22509.03
0.9508,0.0492	-22491.78
0.9714,0.0286	-22480.71
0.9916,0.0084	-22480.08
0.9814,0.0186	-22480.03
0.9613,0.0387	-22488.12
0.9527,0.0473	-22494.68
0.9535,0.0465	-22491.63
0.9732,0.0268	-22491.34
0.9921,0.0079	-22475.30
0.9760,0.0240	-22476.64
0.9656,0.0344	-22491.25
0.9660,0.0340	-22491.25
0.9510,0.0490	-22482.87
0.9670,0.0330	-22477.73
0.9921,0.0079	-22475.30
0.9809,0.0191	-22476.12
0.9578,0.0422	-22494.56
0.9740,0.0260	-22476.88
0.9597,0.0403	-22485.04
0.9635,0.0365	-22494.55
0.9912,0.0088	-22484.77
0.9759,0.0241	-22484.06
0.9598,0.0402	-22500.89
0.9678,0.0322	-22481.03
0.9583,0.0417	-22488.29
0.9686,0.0314	-22477.53
0.9922,0.0078	-22494.71
0.9781,0.0219	-22480.21
0.9580,0.0420	-22488.31
0.9692,0.0308	-22494.70
0.9456,0.0544	-22492.10
0.9680,0.0320	-22484.43
0.9923,0.0077	-22470.44
0.9765,0.0235	-22484.04
0.9558,0.0442	-22491.53
0.9727,0.0273	-22484.17
0.9500,0.0500	-22488.88
0.9669,0.0331	-22481.12
0.9908,0.0092	-22475.35
0.9758,0.0242	-22480.36
0.9641,0.0359	-22497.85
0.9692,0.0308	-22480.91
0.9452,0.0548	-22489.29
0.9690,0.0310	-22498.14
0.9897,0.0103	-22475.40
0.9740,0.0260	-22476.88
0.9724,0.0276	-22487.75
0.9746,0.0254	-22480.45
0.9501,0.0499	-22482.98
0.9673,0.0327	-22491.24
0.9902,0.0098	-22470.76
0.9741,0.0259	-22487.75
0.9735,0.0265	-22491.35
0.9755,0.0245	-22484.07
0.9561,0.0439	-22488.43
0.9721,0.0279	-22487.75
0.9903,0.0097	-22470.74
0.9701,0.0299	-22491.26
0.9737,0.0263	-22476.91
0.9766,0.0234	-22480.31
0.9617,0.0383	-22500.99
0.9640,0.0360	-22481.41
0.9887,0.0113	-22470.98
0.9717,0.0283	-22480.68
0.9696,0.0304	-22491.26
0.9769,0.0231	-22491.52
0.9651,0.0349	-22477.98
0.9659,0.0341	-22501.28
0.9885,0.0115	-22479.92
0.9669,0.0331	-22487.87
0.9785,0.0215	-22484.00
0.9751,0.0249	-22491.42
0.9660,0.0340	-22484.56
0.9566,0.0434	-22500.77
0.9862,0.0138	-22475.63
0.9695,0.0305	-22491.26
0.9771,0.0229	-22476.52
0.9743,0.0257	-22487.75
0.9651,0.0349	-22487.94
0.9508,0.0492	-22491.78
0.9879,0.0121	-22471.11
0.9706,0.0294	-22491.27
0.9792,0.0208	-22480.15
0.9661,0.0339	-22487.90
0.9680,0.0320	-22494.65
0.9479,0.0521	-22497.76
0.9909,0.0091	-22470.66
0.9756,0.0244	-22495.13
0.9816,0.0184	-22480.03
0.9645,0.0355	-22481.36
0.9685,0.0315	-22491.25
0.9341,0.0659	-22485.06
0.9888,0.0112	-22475.45
0.9778,0.0222	-22476.44
0.9832,0.0168	-22484.03
0.9688,0.0312	-22480.94
0.9719,0.0281	-22477.12
0.9221,0.0779	-22511.48
0.9915,0.0085	-22475.32
0.9805,0.0195	-22472.24
0.9845,0.0155	-22479.93
0.9582,0.0418	-22488.29
0.9726,0.0274	-22480.61
0.9382,0.0618	-22492.66
0.9902,0.0098	-22475.37
0.9763,0.0237	-22484.05
0.9859,0.0141	-22479.91
0.9479,0.0521	-22503.56
0.9682,0.0318	-22480.99
0.9422,0.0578	-22503.52
0.9864,0.0136	-22471.33
0.9799,0.0201	-22480.11
0.9879,0.0121	-22484.32
0.9424,0.0576	-22495.13
0.9655,0.0345	-22481.26
0.9341,0.0659	-22490.36
0.9904,0.0096	-22470.72
0.9805,0.0195	-22472.24
0.9882,0.0118	-22475.48
0.9423,0.0577	-22495.14
0.9690,0.0310	-22484.37
0.9402,0.0598	-22503.53
0.9900,0.0100	-22475.38
0.9804,0.0196	-22476.16
0.9863,0.0137	-22484.18
0.9378,0.0622	-22495.41
0.9755,0.0245	-22487.75
0.9322,0.0678	-22501.05
0.9910,0.0090	-22475.34
0.9807,0.0193	-22472.21
0.9868,0.0132	-22479.90
0.9428,0.0572	-22503.52
0.9781,0.0219	-22484.01
0.9273,0.0727	-22501.29
0.9921,0.0079	-22470.47
0.9808,0.0192	-22487.93
0.9853,0.0147	-22475.71
0.9499,0.0501	-22494.77
0.9821,0.0179	-22484.01
0.9334,0.0666	-22498.36
0.9906,0.0094	-22475.35
0.9815,0.0185	-22476.06
0.9832,0.0168	-22475.90
0.9586,0.0414	-22488.27
0.9860,0.0140	-22471.39
0.9336,0.0664	-22493.06
0.9907,0.0093	-22480.02
0.9804,0.0196	-22476.16
