#isoforms=['ENSG00000110080.SE.2.A.up_ENSG00000110080.SE.2.A.SE1_ENSG00000110080.SE.2.A.dn','ENSG00000110080.SE.2.B.up_ENSG00000110080.SE.2.B.dn']	exon_lens=('ENSG00000110080.SE.2.A.up',61),('ENSG00000110080.SE.2.A.SE1',96),('ENSG00000110080.SE.2.A.dn',190),('ENSG00000110080.SE.2.B.up',61),('ENSG00000110080.SE.2.B.dn',190)	iters=5000	burn_in=500	lag=10	percent_accept=94.52	proposal_type=drift	counts=(0,0):1282,(0,1):1,(1,0):998,(1,1):700	assigned_counts=0:1698,1:1	chrom=chr11	strand=+	mRNA_starts=126407574,126407574	mRNA_ends=126408496,126408496
sampled_psi	log_score
0.9954,0.0046	-9404.37
0.9876,0.0124	-9419.75
0.9926,0.0074	-9414.25
0.9884,0.0116	-9415.07
0.9834,0.0166	-9425.60
0.9863,0.0137	-9437.32
0.9958,0.0042	-9388.12
0.9868,0.0132	-9415.69
0.9933,0.0067	-9409.32
0.9899,0.0101	-9414.58
0.9853,0.0147	-9433.23
0.9849,0.0151	-9424.99
0.9959,0.0041	-9388.08
0.9877,0.0123	-9432.87
0.9940,0.0060	-9409.36
0.9898,0.0102	-9419.19
0.9844,0.0156	-9425.19
0.9856,0.0144	-9450.08
0.9955,0.0045	-9382.79
0.9838,0.0162	-9413.12
0.9945,0.0055	-9388.65
0.9900,0.0100	-9419.15
0.9872,0.0128	-9411.19
0.9850,0.0150	-9437.50
0.9950,0.0050	-9393.71
0.9807,0.0193	-9434.82
0.9949,0.0051	-9399.01
0.9922,0.0078	-9404.55
0.9879,0.0121	-9428.45
0.9817,0.0183	-9434.41
0.9960,0.0040	-9404.59
0.9824,0.0176	-9434.14
0.9949,0.0051	-9393.73
0.9917,0.0083	-9419.06
0.9897,0.0103	-9446.59
0.9813,0.0187	-9434.59
0.9951,0.0049	-9388.36
0.9803,0.0197	-9442.82
0.9950,0.0050	-9399.01
0.9914,0.0086	-9428.55
0.9864,0.0136	-9428.72
0.9784,0.0216	-9454.96
0.9955,0.0045	-9399.02
0.9799,0.0201	-9462.39
0.9951,0.0049	-9404.32
0.9915,0.0085	-9400.02
0.9846,0.0154	-9445.89
0.9798,0.0202	-9454.64
0.9965,0.0035	-9393.57
0.9848,0.0152	-9420.86
0.9940,0.0060	-9399.13
0.9895,0.0105	-9432.88
0.9845,0.0155	-9420.97
0.9780,0.0220	-9439.89
0.9967,0.0033	-9387.89
0.9866,0.0134	-9450.18
0.9943,0.0057	-9404.24
0.9900,0.0100	-9400.80
0.9852,0.0148	-9433.25
0.9805,0.0195	-9419.26
0.9958,0.0042	-9388.09
0.9885,0.0115	-9423.93
0.9935,0.0065	-9404.29
0.9896,0.0104	-9437.44
0.9857,0.0143	-9420.45
0.9813,0.0187	-9458.33
0.9959,0.0041	-9382.56
0.9903,0.0097	-9409.86
0.9932,0.0068	-9404.34
0.9921,0.0079	-9399.74
0.9859,0.0141	-9424.63
0.9853,0.0147	-9429.05
0.9956,0.0044	-9404.44
0.9884,0.0116	-9419.50
0.9932,0.0068	-9394.36
0.9911,0.0089	-9400.20
0.9858,0.0142	-9420.42
0.9865,0.0135	-9433.00
0.9960,0.0040	-9382.52
0.9861,0.0139	-9437.34
0.9924,0.0076	-9414.25
0.9909,0.0091	-9423.76
0.9830,0.0170	-9470.44
0.9853,0.0147	-9420.63
0.9959,0.0041	-9382.59
0.9847,0.0153	-9425.05
0.9934,0.0066	-9389.27
0.9914,0.0086	-9428.54
0.9817,0.0183	-9454.31
0.9876,0.0124	-9411.00
0.9956,0.0044	-9399.02
0.9879,0.0121	-9424.05
0.9945,0.0055	-9419.84
0.9915,0.0085	-9400.03
0.9825,0.0175	-9438.13
0.9885,0.0115	-9415.02
0.9954,0.0046	-9404.38
0.9881,0.0119	-9410.72
0.9958,0.0042	-9399.05
0.9940,0.0060	-9399.14
0.9818,0.0182	-9430.38
0.9879,0.0121	-9428.45
0.9961,0.0039	-9382.50
0.9870,0.0130	-9419.94
0.9958,0.0042	-9393.57
0.9946,0.0054	-9393.81
0.9806,0.0194	-9423.09
0.9891,0.0109	-9410.30
0.9969,0.0031	-9382.09
0.9837,0.0163	-9437.79
0.9950,0.0050	-9409.59
0.9954,0.0046	-9393.63
0.9816,0.0184	-9434.46
0.9906,0.0094	-9405.10
0.9974,0.0026	-9381.92
0.9842,0.0158	-9437.66
0.9959,0.0041	-9388.06
0.9942,0.0058	-9409.39
0.9838,0.0162	-9437.77
0.9914,0.0086	-9409.55
0.9980,0.0020	-9381.83
0.9816,0.0184	-9438.43
0.9966,0.0034	-9376.52
0.9949,0.0051	-9399.01
0.9842,0.0158	-9433.54
0.9916,0.0084	-9419.05
0.9980,0.0020	-9388.03
0.9806,0.0194	-9458.40
0.9969,0.0031	-9376.36
0.9948,0.0052	-9399.02
0.9845,0.0155	-9437.60
0.9922,0.0078	-9409.40
0.9981,0.0019	-9381.82
0.9828,0.0172	-9438.02
0.9972,0.0028	-9376.08
0.9963,0.0037	-9393.56
0.9843,0.0157	-9408.65
0.9939,0.0061	-9409.35
0.9974,0.0026	-9381.93
0.9761,0.0239	-9474.23
0.9969,0.0031	-9382.11
0.9962,0.0038	-9399.14
0.9887,0.0113	-9423.90
0.9946,0.0054	-9399.04
0.9977,0.0023	-9381.86
0.9782,0.0218	-9462.64
0.9972,0.0028	-9387.86
0.9968,0.0032	-9399.37
0.9865,0.0135	-9428.71
0.9958,0.0042	-9382.65
0.9973,0.0027	-9399.66
0.9801,0.0199	-9435.10
0.9974,0.0026	-9381.94
0.9965,0.0035	-9387.92
0.9887,0.0113	-9419.42
0.9953,0.0047	-9382.96
0.9967,0.0033	-9393.60
0.9805,0.0195	-9454.50
0.9972,0.0028	-9381.98
0.9965,0.0035	-9387.92
0.9856,0.0144	-9428.94
0.9949,0.0051	-9383.22
0.9966,0.0034	-9399.28
0.9852,0.0148	-9437.46
0.9965,0.0035	-9387.92
0.9958,0.0042	-9377.20
0.9883,0.0117	-9419.52
0.9964,0.0036	-9387.94
0.9968,0.0032	-9393.62
0.9850,0.0150	-9437.51
0.9961,0.0039	-9388.03
0.9949,0.0051	-9409.56
0.9876,0.0124	-9419.75
0.9963,0.0037	-9387.98
0.9967,0.0033	-9382.16
0.9848,0.0152	-9445.88
0.9958,0.0042	-9393.57
0.9952,0.0048	-9393.67
0.9871,0.0129	-9432.92
0.9968,0.0032	-9382.12
0.9958,0.0042	-9404.52
0.9869,0.0131	-9445.91
0.9945,0.0055	-9393.87
0.9948,0.0052	-9404.27
0.9884,0.0116	-9397.30
0.9961,0.0039	-9382.47
0.9938,0.0062	-9409.34
0.9878,0.0122	-9424.08
0.9956,0.0044	-9393.59
0.9950,0.0050	-9393.71
0.9846,0.0154	-9420.93
0.9959,0.0041	-9388.08
0.9948,0.0052	-9414.77
0.9838,0.0162	-9454.19
0.9953,0.0047	-9377.59
0.9954,0.0046	-9399.00
0.9836,0.0164	-9409.12
0.9962,0.0038	-9399.12
0.9948,0.0052	-9383.26
0.9833,0.0167	-9437.90
0.9957,0.0043	-9388.12
0.9957,0.0043	-9399.03
0.9814,0.0186	-9438.51
0.9965,0.0035	-9393.57
0.9946,0.0054	-9383.38
0.9856,0.0144	-9437.40
0.9950,0.0050	-9388.41
0.9964,0.0036	-9393.57
0.9814,0.0186	-9438.50
0.9970,0.0030	-9399.49
0.9939,0.0061	-9399.16
0.9830,0.0170	-9429.84
0.9954,0.0046	-9399.01
0.9974,0.0026	-9381.93
0.9838,0.0162	-9433.66
0.9970,0.0030	-9382.05
0.9948,0.0052	-9393.75
0.9878,0.0122	-9432.85
0.9953,0.0047	-9382.96
0.9973,0.0027	-9381.95
0.9851,0.0149	-9441.67
0.9975,0.0025	-9381.90
0.9950,0.0050	-9393.71
0.9878,0.0122	-9437.25
0.9950,0.0050	-9409.61
0.9977,0.0023	-9375.79
0.9849,0.0151	-9412.46
0.9975,0.0025	-9381.90
0.9962,0.0038	-9388.00
0.9891,0.0109	-9428.34
0.9961,0.0039	-9399.09
0.9972,0.0028	-9399.60
0.9845,0.0155	-9421.01
0.9968,0.0032	-9387.88
0.9954,0.0046	-9388.26
0.9897,0.0103	-9414.65
0.9962,0.0038	-9382.41
0.9971,0.0029	-9376.18
0.9832,0.0168	-9437.93
0.9971,0.0029	-9411.19
0.9955,0.0045	-9404.41
0.9909,0.0091	-9428.45
0.9970,0.0030	-9393.68
0.9969,0.0031	-9387.87
0.9833,0.0167	-9429.73
0.9967,0.0033	-9393.61
0.9950,0.0050	-9393.72
0.9911,0.0089	-9419.06
0.9969,0.0031	-9382.10
0.9970,0.0030	-9376.24
0.9846,0.0154	-9429.26
0.9967,0.0033	-9382.20
0.9930,0.0070	-9399.41
0.9906,0.0094	-9405.09
0.9970,0.0030	-9387.87
0.9970,0.0030	-9387.86
0.9845,0.0155	-9416.85
0.9974,0.0026	-9393.83
0.9950,0.0050	-9388.41
0.9918,0.0082	-9395.06
0.9972,0.0028	-9387.86
0.9970,0.0030	-9387.87
0.9850,0.0150	-9441.69
0.9983,0.0017	-9388.19
0.9956,0.0044	-9388.18
0.9929,0.0071	-9404.38
0.9962,0.0038	-9399.12
0.9977,0.0023	-9381.87
0.9873,0.0127	-9406.78
0.9980,0.0020	-9406.58
0.9961,0.0039	-9399.10
0.9938,0.0062	-9394.11
0.9951,0.0049	-9388.36
0.9972,0.0028	-9393.76
0.9883,0.0117	-9419.52
0.9976,0.0024	-9375.82
0.9961,0.0039	-9393.56
0.9949,0.0051	-9399.01
0.9958,0.0042	-9388.11
0.9971,0.0029	-9393.71
0.9901,0.0099	-9405.34
0.9980,0.0020	-9388.05
0.9963,0.0037	-9404.75
0.9942,0.0058	-9393.97
0.9956,0.0044	-9393.60
0.9968,0.0032	-9382.12
0.9925,0.0075	-9394.70
0.9978,0.0022	-9381.84
0.9969,0.0031	-9399.41
0.9942,0.0058	-9404.24
0.9951,0.0049	-9393.69
0.9965,0.0035	-9382.29
0.9927,0.0073	-9394.61
0.9977,0.0023	-9400.06
0.9970,0.0030	-9405.32
0.9934,0.0066	-9399.29
0.9942,0.0058	-9409.39
0.9966,0.0034	-9399.26
0.9918,0.0082	-9409.46
0.9977,0.0023	-9387.92
0.9970,0.0030	-9393.67
0.9929,0.0071	-9429.11
0.9940,0.0060	-9388.94
0.9965,0.0035	-9382.28
0.9939,0.0061	-9394.07
0.9975,0.0025	-9381.89
0.9970,0.0030	-9399.46
0.9931,0.0069	-9399.38
0.9930,0.0070	-9394.46
0.9964,0.0036	-9393.57
0.9924,0.0076	-9399.63
0.9976,0.0024	-9375.86
0.9970,0.0030	-9393.66
0.9923,0.0077	-9404.53
0.9941,0.0059	-9393.99
0.9972,0.0028	-9393.76
0.9915,0.0085	-9400.00
0.9973,0.0027	-9381.96
0.9967,0.0033	-9393.61
0.9920,0.0080	-9394.96
0.9948,0.0052	-9399.02
0.9971,0.0029	-9399.58
0.9915,0.0085	-9404.77
0.9969,0.0031	-9382.10
0.9962,0.0038	-9388.00
0.9930,0.0070	-9414.28
0.9945,0.0055	-9404.25
0.9966,0.0034	-9382.23
0.9905,0.0095	-9419.10
0.9967,0.0033	-9387.89
0.9952,0.0048	-9404.33
0.9932,0.0068	-9404.34
0.9944,0.0056	-9399.07
0.9958,0.0042	-9404.50
0.9905,0.0095	-9405.13
0.9974,0.0026	-9399.79
0.9944,0.0056	-9388.70
0.9919,0.0081	-9409.44
0.9938,0.0062	-9389.01
0.9945,0.0055	-9393.87
0.9909,0.0091	-9409.68
0.9968,0.0032	-9393.62
0.9942,0.0058	-9429.94
0.9907,0.0093	-9419.08
0.9931,0.0069	-9399.37
0.9941,0.0059	-9393.99
0.9887,0.0113	-9410.48
0.9961,0.0039	-9382.46
0.9947,0.0053	-9393.78
0.9919,0.0081	-9409.45
0.9922,0.0078	-9423.94
0.9930,0.0070	-9399.40
0.9889,0.0111	-9419.37
0.9956,0.0044	-9404.45
0.9940,0.0060	-9394.02
0.9896,0.0104	-9410.11
0.9901,0.0099	-9405.35
0.9925,0.0075	-9414.25
0.9915,0.0085	-9400.01
0.9971,0.0029	-9376.20
0.9946,0.0054	-9388.59
0.9899,0.0101	-9405.44
0.9884,0.0116	-9432.83
0.9953,0.0047	-9393.64
0.9907,0.0093	-9414.41
0.9966,0.0034	-9399.28
0.9931,0.0069	-9419.26
0.9888,0.0112	-9419.39
0.9852,0.0148	-9475.26
0.9947,0.0053	-9388.58
0.9907,0.0093	-9391.10
0.9958,0.0042	-9393.58
0.9928,0.0072	-9394.55
0.9909,0.0091	-9428.45
0.9885,0.0115	-9415.01
0.9954,0.0046	-9399.01
0.9902,0.0098	-9409.91
0.9966,0.0034	-9376.54
0.9933,0.0067	-9409.32
0.9907,0.0093	-9405.06
0.9879,0.0121	-9410.82
0.9957,0.0043	-9399.03
0.9921,0.0079	-9399.75
0.9966,0.0034	-9382.24
0.9938,0.0062	-9389.01
0.9921,0.0079	-9399.76
0.9854,0.0146	-9416.36
0.9957,0.0043	-9399.03
0.9904,0.0096	-9405.19
0.9978,0.0022	-9394.10
0.9934,0.0066	-9409.32
0.9911,0.0089	-9400.20
0.9880,0.0120	-9428.43
0.9955,0.0045	-9399.01
0.9921,0.0079	-9409.42
0.9980,0.0020	-9381.82
0.9934,0.0066	-9394.30
0.9898,0.0102	-9396.33
0.9876,0.0124	-9402.22
0.9960,0.0040	-9393.56
0.9941,0.0059	-9399.12
0.9980,0.0020	-9381.83
0.9910,0.0090	-9414.36
0.9902,0.0098	-9423.74
0.9873,0.0127	-9411.15
0.9955,0.0045	-9399.01
0.9936,0.0064	-9384.09
0.9977,0.0023	-9387.94
0.9901,0.0099	-9409.94
0.9932,0.0068	-9384.42
0.9910,0.0090	-9433.18
0.9947,0.0053	-9393.79
0.9935,0.0065	-9394.24
0.9968,0.0032	-9399.35
0.9900,0.0100	-9405.37
0.9936,0.0064	-9409.33
0.9907,0.0093	-9414.41
0.9950,0.0050	-9404.31
0.9942,0.0058	-9404.24
0.9965,0.0035	-9387.92
0.9884,0.0116	-9406.18
0.9921,0.0079	-9390.09
0.9918,0.0082	-9409.48
0.9955,0.0045	-9399.01
0.9939,0.0061	-9404.25
0.9961,0.0039	-9393.56
0.9886,0.0114	-9423.91
0.9926,0.0074	-9409.36
0.9920,0.0080	-9404.61
0.9959,0.0041	-9404.55
0.9953,0.0047	-9404.35
0.9959,0.0041	-9410.06
0.9877,0.0123	-9432.86
0.9925,0.0075	-9428.89
0.9911,0.0089	-9400.21
0.9942,0.0058	-9393.96
0.9951,0.0049	-9393.68
0.9965,0.0035	-9387.92
0.9899,0.0101	-9409.99
0.9940,0.0060	-9404.25
0.9896,0.0104	-9414.68
0.9943,0.0057	-9399.08
0.9947,0.0053	-9399.03
0.9966,0.0034	-9393.59
0.9903,0.0097	-9405.24
0.9951,0.0049	-9383.06
0.9907,0.0093	-9419.08
0.9944,0.0056	-9409.42
0.9955,0.0045	-9409.79
0.9970,0.0030	-9399.45
0.9912,0.0088	-9419.05
0.9948,0.0052	-9409.52
0.9930,0.0070	-9414.28
0.9922,0.0078	-9404.56
0.9959,0.0041	-9388.07
0.9973,0.0027	-9381.95
0.9928,0.0072	-9404.42
0.9950,0.0050	-9388.44
0.9934,0.0066	-9394.26
0.9917,0.0083	-9399.92
0.9960,0.0040	-9388.06
0.9958,0.0042	-9393.58
0.9940,0.0060	-9394.04
0.9945,0.0055	-9393.84
0.9952,0.0048	-9404.33
0.9916,0.0084	-9414.28
0.9957,0.0043	-9399.03
0.9961,0.0039	-9388.00
0.9931,0.0069	-9409.32
0.9950,0.0050	-9404.30
0.9968,0.0032	-9405.07
0.9907,0.0093	-9409.74
0.9957,0.0043	-9388.15
0.9962,0.0038	-9387.98
0.9929,0.0071	-9414.27
0.9940,0.0060	-9404.25
0.9965,0.0035	-9376.59
0.9883,0.0117	-9415.09
0.9965,0.0035	-9382.27
0.9961,0.0039	-9388.01
0.9930,0.0070	-9409.33
0.9937,0.0063	-9394.15
0.9957,0.0043	-9388.16
0.9898,0.0102	-9419.19
0.9970,0.0030	-9387.86
0.9961,0.0039	-9399.11
0.9904,0.0096	-9395.94
0.9938,0.0062	-9414.41
0.9955,0.0045	-9404.42
0.9889,0.0111	-9419.37
0.9961,0.0039	-9399.11
0.9957,0.0043	-9409.91
0.9900,0.0100	-9409.95
0.9933,0.0067	-9399.33
0.9950,0.0050	-9377.82
0.9882,0.0118	-9410.69
0.9953,0.0047	-9404.35
0.9961,0.0039	-9399.09
0.9908,0.0092	-9409.71
0.9920,0.0080	-9404.62
0.9929,0.0071	-9414.27
0.9900,0.0100	-9419.15
0.9960,0.0040	-9382.51
0.9965,0.0035	-9399.22
0.9932,0.0068	-9409.32
0.9890,0.0110	-9428.34
0.9928,0.0072	-9389.66
0.9891,0.0109	-9423.83
0.9966,0.0034	-9387.91
0.9964,0.0036	-9382.33
0.9932,0.0068	-9404.33
0.9886,0.0114	-9428.37
0.9911,0.0089	-9400.20
0.9892,0.0108	-9419.31
0.9966,0.0034	-9387.91
0.9972,0.0028	-9381.98
0.9925,0.0075	-9414.25
0.9891,0.0109	-9410.29
0.9894,0.0106	-9423.80
0.9905,0.0095	-9414.45
0.9965,0.0035	-9393.58
0.9973,0.0027	-9387.87
0.9924,0.0076	-9419.11
0.9903,0.0097	-9409.87
0.9886,0.0114	-9406.04
0.9911,0.0089	-9404.92
0.9966,0.0034	-9404.93
0.9976,0.0024	-9387.92
0.9916,0.0084	-9419.05
0.9889,0.0111	-9410.37
0.9896,0.0104	-9410.11
0.9900,0.0100	-9432.94
0.9962,0.0038	-9393.56
0.9975,0.0025	-9387.90
0.9904,0.0096	-9400.59
0.9870,0.0130	-9411.31
0.9899,0.0101	-9432.93
0.9908,0.0092	-9400.36
0.9960,0.0040	-9388.05
0.9970,0.0030	-9387.86
0.9904,0.0096	-9395.94
0.9903,0.0097	-9409.86
0.9917,0.0083	-9414.28
0.9918,0.0082	-9438.23
0.9959,0.0041	-9382.59
0.9977,0.0023	-9387.93
0.9892,0.0108	-9423.82
0.9916,0.0084	-9395.19
0.9920,0.0080	-9423.90
0.9905,0.0095	-9391.24
0.9961,0.0039	-9388.00
0.9977,0.0023	-9381.86
0.9889,0.0111	-9423.86
0.9929,0.0071	-9399.45
0.9938,0.0062	-9394.09
0.9906,0.0094	-9400.48
0.9966,0.0034	-9404.95
0.9976,0.0024	-9381.87
0.9899,0.0101	-9400.83
0.9908,0.0092	-9414.39
0.9947,0.0053	-9404.26
0.9901,0.0099	-9409.94
0.9970,0.0030	-9376.24
0.9970,0.0030	-9393.68
0.9911,0.0089	-9419.05
0.9913,0.0087	-9409.58
0.9951,0.0049	-9414.96
0.9901,0.0099	-9414.53
0.9967,0.0033	-9382.17
0.9967,0.0033	-9382.18
0.9916,0.0084	-9409.50
0.9909,0.0091	-9409.68
0.9957,0.0043	-9399.03
0.9897,0.0103	-9419.20
0.9966,0.0034	-9387.90
0.9967,0.0033	-9382.17
0.9900,0.0100	-9437.54
0.9923,0.0077	-9423.97
0.9955,0.0045	-9404.40
0.9890,0.0110	-9419.34
0.9964,0.0036	-9382.33
0.9972,0.0028	-9381.98
0.9907,0.0093	-9405.09
0.9932,0.0068	-9399.35
0.9958,0.0042	-9388.11
0.9892,0.0108	-9423.82
0.9969,0.0031	-9399.39
0.9971,0.0029	-9387.86
0.9891,0.0109	-9405.80
0.9903,0.0097	-9400.59
0.9961,0.0039	-9393.56
0.9870,0.0130	-9441.59
0.9970,0.0030	-9393.67
0.9973,0.0027	-9381.97
0.9895,0.0105	-9419.24
0.9908,0.0092	-9405.02
0.9967,0.0033	-9387.89
0.9871,0.0129	-9411.25
0.9967,0.0033	-9382.20
0.9970,0.0030	-9387.86
0.9890,0.0110	-9405.83
0.9925,0.0075	-9424.03
0.9968,0.0032	-9393.62
0.9902,0.0098	-9382.22
0.9965,0.0035	-9399.22
0.9960,0.0040	-9393.56
0.9888,0.0112	-9428.35
0.9942,0.0058	-9399.10
0.9962,0.0038	-9388.00
0.9908,0.0092	-9419.07
0.9964,0.0036	-9399.17
0.9953,0.0047	-9404.37
0.9890,0.0110	-9405.83
0.9925,0.0075	-9404.49
0.9961,0.0039	-9404.64
0.9923,0.0077	-9409.40
0.9952,0.0048	-9382.97
0.9955,0.0045	-9393.62
0.9924,0.0076	-9419.11
0.9932,0.0068	-9404.34
0.9957,0.0043	-9404.46
0.9925,0.0075	-9394.70
0.9949,0.0051	-9404.29
0.9944,0.0056	-9383.54
0.9901,0.0099	-9414.53
0.9921,0.0079	-9423.91
0.9962,0.0038	-9393.56
0.9933,0.0067	-9409.32
0.9943,0.0057	-9404.24
0.9935,0.0065	-9384.20
0.9881,0.0119	-9428.43
0.9912,0.0088	-9404.89
0.9946,0.0054	-9404.26
0.9917,0.0083	-9404.70
0.9951,0.0049	-9399.00
0.9940,0.0060	-9388.93
0.9853,0.0147	-9403.82
0.9892,0.0108	-9410.28
0.9941,0.0059	-9399.12
0.9904,0.0096	-9428.38
0.9937,0.0063	-9404.27
0.9935,0.0065	-9404.29
0.9872,0.0128	-9424.23
0.9891,0.0109	-9423.83
0.9922,0.0078	-9409.40
0.9900,0.0100	-9414.56
0.9940,0.0060	-9388.94
0.9924,0.0076	-9394.77
0.9902,0.0098	-9423.75
0.9876,0.0124	-9419.73
0.9932,0.0068	-9399.34
0.9905,0.0095	-9391.19
0.9951,0.0049	-9377.76
0.9924,0.0076	-9389.90
0.9911,0.0089	-9419.06
0.9894,0.0106	-9432.87
0.9924,0.0076	-9394.74
0.9901,0.0099	-9419.15
0.9954,0.0046	-9388.24
0.9908,0.0092	-9428.42
0.9920,0.0080	-9423.89
0.9889,0.0111	-9432.84
0.9910,0.0090	-9395.57
0.9888,0.0112	-9419.40
0.9952,0.0048	-9399.00
0.9922,0.0078	-9409.40
0.9939,0.0061	-9388.96
0.9885,0.0115	-9410.56
0.9918,0.0082	-9409.47
0.9877,0.0123	-9406.56
0.9957,0.0043	-9382.69
0.9899,0.0101	-9419.17
0.9936,0.0064	-9389.12
0.9876,0.0124	-9419.74
0.9914,0.0086	-9423.79
0.9875,0.0125	-9424.13
0.9954,0.0046	-9399.01
0.9907,0.0093	-9405.09
0.9928,0.0072	-9379.75
0.9891,0.0109	-9401.29
0.9906,0.0094	-9405.09
0.9898,0.0102	-9451.21
0.9962,0.0038	-9393.56
0.9895,0.0105	-9405.62
0.9944,0.0056	-9393.90
0.9897,0.0103	-9400.95
0.9914,0.0086	-9395.30
0.9910,0.0090	-9404.96
0.9956,0.0044	-9409.88
0.9898,0.0102	-9423.76
0.9943,0.0057	-9399.08
0.9902,0.0098	-9437.59
0.9884,0.0116	-9419.49
0.9927,0.0073	-9399.52
0.9958,0.0042	-9377.16
0.9892,0.0108	-9419.30
0.9922,0.0078	-9404.56
0.9911,0.0089	-9423.77
0.9906,0.0094	-9409.78
0.9938,0.0062	-9394.10
0.9960,0.0040	-9393.56
0.9921,0.0079	-9390.12
0.9914,0.0086	-9400.07
0.9913,0.0087	-9409.58
0.9910,0.0090	-9414.36
0.9950,0.0050	-9383.12
0.9958,0.0042	-9393.57
0.9924,0.0076	-9399.63
0.9913,0.0087	-9419.05
0.9919,0.0081	-9404.64
0.9907,0.0093	-9428.42
0.9956,0.0044	-9399.02
0.9957,0.0043	-9382.68
0.9930,0.0070	-9389.53
0.9927,0.0073	-9409.34
0.9910,0.0090	-9419.06
0.9904,0.0096	-9400.58
0.9960,0.0040	-9393.56
0.9956,0.0044	-9399.02
0.9922,0.0078	-9394.84
0.9952,0.0048	-9404.33
0.9910,0.0090	-9400.26
0.9887,0.0113	-9401.52
0.9949,0.0051	-9414.84
0.9949,0.0051	-9383.16
0.9924,0.0076	-9394.78
0.9952,0.0048	-9393.66
0.9911,0.0089	-9423.76
0.9876,0.0124	-9415.38
0.9946,0.0054	-9399.04
0.9948,0.0052	-9393.76
0.9931,0.0069	-9399.40
0.9945,0.0055	-9399.05
0.9927,0.0073	-9419.17
0.9836,0.0164	-9417.37
0.9938,0.0062	-9409.34
0.9939,0.0061	-9388.95
0.9925,0.0075	-9389.82
0.9954,0.0046	-9409.75
0.9904,0.0096	-9414.47
0.9858,0.0142	-9416.17
0.9919,0.0081	-9390.23
0.9941,0.0059	-9424.72
0.9931,0.0069	-9409.32
0.9951,0.0049	-9393.68
0.9919,0.0081	-9409.44
0.9839,0.0161	-9429.53
0.9944,0.0056	-9404.24
0.9953,0.0047	-9382.95
0.9926,0.0074	-9389.77
0.9953,0.0047	-9393.65
0.9923,0.0077	-9399.68
0.9850,0.0150	-9437.49
0.9935,0.0065	-9404.29
0.9946,0.0054	-9399.04
0.9918,0.0082	-9409.47
0.9953,0.0047	-9393.66
0.9905,0.0095	-9409.81
0.9895,0.0105	-9423.79
0.9933,0.0067	-9394.34
0.9955,0.0045	-9393.61
0.9922,0.0078	-9414.25
0.9950,0.0050	-9383.13
0.9907,0.0093	-9414.42
0.9897,0.0103	-9405.53
0.9934,0.0066	-9409.32
0.9956,0.0044	-9415.29
0.9935,0.0065	-9414.35
0.9950,0.0050	-9388.43
0.9929,0.0071	-9414.27
0.9872,0.0128	-9402.51
0.9918,0.0082	-9404.67
0.9957,0.0043	-9393.59
0.9913,0.0087	-9404.83
0.9932,0.0068	-9399.36
0.9937,0.0063	-9404.27
0.9846,0.0154	-9425.10
0.9927,0.0073	-9409.35
0.9963,0.0037	-9399.16
0.9904,0.0096	-9414.47
0.9930,0.0070	-9384.53
0.9936,0.0064	-9409.32
0.9858,0.0142	-9424.64
0.9934,0.0066	-9389.27
0.9965,0.0035	-9387.93
0.9924,0.0076	-9394.78
0.9942,0.0058	-9399.10
0.9919,0.0081	-9409.46
0.9875,0.0125	-9411.01
0.9928,0.0072	-9389.64
0.9971,0.0029	-9387.86
0.9906,0.0094	-9400.44
0.9950,0.0050	-9388.41
0.9907,0.0093	-9405.07
0.9851,0.0149	-9424.89
0.9935,0.0065	-9399.25
0.9967,0.0033	-9387.89
0.9891,0.0109	-9423.83
0.9954,0.0046	-9393.63
0.9897,0.0103	-9414.64
0.9894,0.0106	-9405.66
0.9929,0.0071	-9399.43
0.9965,0.0035	-9410.55
0.9881,0.0119	-9415.18
0.9944,0.0056	-9399.06
0.9910,0.0090	-9409.67
0.9876,0.0124	-9419.74
0.9939,0.0061	-9394.07
0.9950,0.0050	-9399.01
0.9872,0.0128	-9424.23
0.9949,0.0051	-9388.46
0.9920,0.0080	-9404.62
0.9903,0.0097	-9419.12
0.9938,0.0062	-9389.02
0.9941,0.0059	-9419.65
0.9886,0.0114	-9428.37
0.9950,0.0050	-9393.70
0.9926,0.0074	-9404.46
0.9896,0.0104	-9428.33
0.9947,0.0053	-9414.74
0.9950,0.0050	-9388.42
0.9875,0.0125	-9419.76
0.9949,0.0051	-9388.47
0.9930,0.0070	-9399.40
0.9907,0.0093	-9428.42
0.9935,0.0065	-9399.26
0.9951,0.0049	-9383.06
0.9899,0.0101	-9419.17
0.9928,0.0072	-9394.53
0.9924,0.0076	-9399.64
0.9912,0.0088	-9395.46
0.9945,0.0055	-9404.25
0.9954,0.0046	-9388.27
0.9907,0.0093	-9451.76
0.9935,0.0065	-9409.32
0.9898,0.0102	-9423.77
0.9917,0.0083	-9423.85
0.9945,0.0055	-9404.25
0.9948,0.0052	-9404.27
0.9893,0.0107	-9423.81
0.9927,0.0073	-9404.43
0.9900,0.0100	-9423.75
0.9922,0.0078	-9394.85
0.9939,0.0061	-9419.52
