#isoforms=['ENSG00000186575.SE.4.A.up_ENSG00000186575.SE.4.A.SE1_ENSG00000186575.SE.4.A.dn','ENSG00000186575.SE.4.B.up_ENSG00000186575.SE.4.B.dn']	exon_lens=('ENSG00000186575.SE.4.A.up',128),('ENSG00000186575.SE.4.A.SE1',163),('ENSG00000186575.SE.4.A.dn',3847),('ENSG00000186575.SE.4.B.up',128),('ENSG00000186575.SE.4.B.dn',194)	iters=5000	burn_in=500	lag=10	percent_accept=94.76	proposal_type=drift	counts=(0,0):5,(1,0):41,(1,1):18	assigned_counts=0:45,1:14	chrom=chr22	strand=+	mRNA_starts=29678196,29678196	mRNA_ends=29698598,29694945
sampled_psi	log_score
0.6693,0.3307	-497.64
0.1448,0.8552	-480.57
0.1669,0.8331	-488.78
0.2160,0.7840	-485.78
0.2668,0.7332	-486.75
0.2183,0.7817	-487.08
0.6918,0.3082	-496.56
0.1664,0.8336	-488.79
0.1919,0.8081	-486.98
0.2060,0.7940	-484.31
0.2394,0.7606	-485.01
0.2391,0.7609	-489.63
0.6858,0.3142	-497.25
0.1628,0.8372	-485.60
0.1665,0.8335	-487.17
0.1813,0.8187	-479.49
0.2371,0.7629	-486.12
0.2027,0.7973	-482.89
0.6728,0.3272	-494.84
0.1751,0.8249	-485.52
0.1342,0.8658	-488.07
0.1731,0.8269	-482.40
0.2249,0.7751	-487.14
0.1866,0.8134	-487.00
0.6693,0.3307	-499.05
0.1399,0.8601	-480.57
0.1635,0.8365	-485.59
0.1633,0.8367	-482.32
0.2509,0.7491	-488.58
0.1845,0.8155	-485.52
0.6111,0.3889	-495.97
0.1245,0.8755	-482.70
0.1515,0.8485	-480.58
0.1494,0.8506	-484.05
0.2437,0.7563	-489.64
0.2053,0.7947	-491.06
0.5990,0.4010	-495.80
0.1405,0.8595	-480.57
0.1723,0.8277	-487.10
0.1189,0.8811	-484.88
0.2172,0.7828	-484.51
0.1975,0.8025	-484.18
0.5321,0.4679	-495.09
0.1285,0.8715	-480.68
0.1469,0.8531	-484.09
0.1069,0.8931	-481.32
0.2037,0.7963	-485.63
0.1823,0.8177	-484.01
0.5417,0.4583	-495.57
0.1514,0.8486	-484.03
0.1523,0.8477	-482.31
0.1176,0.8824	-480.91
0.1976,0.8024	-482.78
0.1698,0.8302	-483.96
0.5327,0.4673	-495.23
0.1650,0.8350	-480.71
0.1639,0.8361	-482.33
0.1450,0.8550	-480.57
0.2106,0.7894	-487.03
0.1925,0.8075	-486.98
0.5580,0.4420	-495.49
0.1803,0.8197	-484.00
0.1532,0.8468	-484.01
0.1351,0.8649	-480.60
0.2292,0.7708	-485.98
0.1839,0.8161	-482.54
0.4854,0.5146	-494.58
0.1917,0.8083	-484.11
0.1410,0.8590	-485.99
0.1401,0.8599	-482.39
0.2058,0.7942	-485.66
0.1835,0.8165	-484.02
0.4506,0.5494	-492.89
0.1858,0.8142	-487.00
0.1520,0.8480	-480.59
0.1578,0.8422	-480.63
0.1936,0.8064	-485.56
0.2452,0.7548	-486.27
0.4312,0.5688	-493.07
0.2022,0.7978	-484.25
0.1590,0.8410	-487.30
0.1526,0.8474	-482.30
0.1939,0.8061	-482.71
0.2061,0.7939	-484.31
0.4322,0.5678	-493.64
0.2088,0.7912	-483.02
0.1807,0.8193	-484.00
0.1744,0.8256	-482.41
0.2103,0.7897	-489.67
0.2001,0.7999	-484.22
0.4557,0.5443	-494.31
0.1631,0.8369	-480.69
0.1746,0.8254	-483.97
0.1836,0.8164	-484.03
0.1979,0.8021	-482.79
0.1655,0.8345	-479.10
0.4560,0.5440	-493.43
0.1507,0.8493	-482.31
0.1841,0.8159	-482.54
0.1746,0.8254	-479.31
0.1839,0.8161	-487.01
0.1611,0.8389	-480.66
0.4188,0.5812	-492.82
0.1805,0.8195	-482.49
0.1811,0.8189	-482.50
0.1960,0.8040	-482.75
0.1911,0.8089	-485.54
0.2021,0.7979	-488.37
0.3591,0.6409	-488.27
0.1410,0.8590	-484.18
0.2145,0.7855	-489.65
0.2300,0.7700	-485.99
0.1636,0.8364	-487.22
0.1539,0.8461	-484.01
0.3142,0.6858	-489.59
0.1098,0.8902	-483.28
0.2368,0.7632	-488.45
0.2035,0.7965	-488.36
0.1697,0.8303	-482.37
0.1365,0.8635	-484.28
0.3379,0.6621	-489.42
0.1090,0.8910	-487.53
0.2310,0.7690	-484.80
0.1878,0.8122	-484.06
0.1797,0.8203	-480.96
0.1374,0.8626	-482.42
0.2908,0.7092	-489.15
0.0963,0.9037	-479.69
0.1826,0.8174	-484.02
0.2071,0.7929	-482.99
0.2119,0.7881	-483.10
0.1227,0.8773	-488.65
0.2647,0.7353	-486.70
0.1065,0.8935	-485.59
0.1934,0.8066	-485.55
0.1867,0.8133	-484.05
0.1776,0.8224	-485.52
0.1208,0.8792	-484.80
0.2953,0.7047	-489.23
0.1024,0.8976	-488.06
0.2468,0.7532	-488.54
0.1644,0.8356	-488.83
0.1764,0.8236	-485.52
0.1460,0.8540	-482.33
0.2769,0.7231	-489.88
0.0814,0.9186	-483.29
0.2556,0.7444	-484.36
0.1545,0.8455	-482.30
0.1871,0.8129	-484.06
0.1367,0.8633	-480.59
0.1945,0.8055	-485.56
0.1024,0.8976	-481.54
0.2460,0.7540	-485.17
0.1376,0.8624	-486.09
0.1934,0.8066	-485.55
0.1604,0.8396	-487.28
0.2039,0.7961	-487.00
0.1073,0.8927	-485.54
0.2509,0.7491	-487.49
0.1374,0.8626	-484.26
0.1993,0.8007	-482.82
0.1833,0.8167	-484.02
0.1905,0.8095	-485.54
0.1136,0.8864	-481.04
0.2342,0.7658	-484.88
0.1454,0.8546	-482.34
0.1616,0.8384	-480.67
0.1964,0.8036	-484.16
0.1830,0.8170	-484.02
0.1055,0.8945	-485.66
0.2115,0.7885	-484.40
0.1417,0.8583	-487.77
0.1571,0.8429	-483.98
0.1833,0.8167	-485.52
0.1422,0.8578	-484.16
0.1189,0.8811	-480.88
0.2566,0.7434	-486.52
0.1389,0.8611	-482.40
0.1715,0.8285	-482.38
0.2271,0.7729	-485.94
0.1534,0.8466	-484.01
0.1223,0.8777	-486.71
0.2426,0.7574	-487.36
0.1050,0.8950	-485.70
0.1725,0.8275	-487.10
0.2298,0.7702	-487.20
0.1526,0.8474	-480.59
0.1354,0.8646	-488.02
0.2856,0.7144	-492.73
0.1194,0.8806	-484.86
0.1532,0.8468	-480.59
0.2900,0.7100	-490.92
0.1575,0.8425	-482.30
0.1335,0.8665	-484.36
0.2626,0.7374	-484.59
0.1033,0.8967	-485.82
0.1562,0.8438	-478.93
0.2756,0.7244	-487.93
0.1703,0.8297	-480.79
0.1324,0.8676	-486.27
0.2132,0.7868	-487.05
0.1171,0.8829	-480.93
0.1570,0.8430	-485.66
0.2189,0.7811	-488.36
0.2013,0.7987	-485.61
0.1409,0.8591	-486.00
0.1879,0.8121	-485.53
0.1213,0.8787	-482.80
0.1471,0.8529	-480.57
0.2199,0.7801	-483.30
0.1777,0.8223	-488.58
0.1313,0.8687	-480.64
0.1642,0.8358	-480.70
0.1209,0.8791	-478.84
0.1301,0.8699	-480.66
0.2303,0.7697	-486.00
0.1718,0.8282	-485.53
0.1295,0.8705	-486.38
0.1467,0.8533	-480.57
0.1194,0.8806	-484.86
0.1371,0.8629	-484.27
0.1942,0.8058	-486.98
0.1818,0.8182	-484.01
0.1347,0.8653	-480.61
0.1484,0.8516	-485.81
0.1062,0.8938	-479.22
0.1707,0.8293	-483.96
0.1883,0.8117	-482.61
0.2128,0.7872	-487.04
0.1316,0.8684	-482.52
0.1576,0.8424	-483.98
0.1364,0.8636	-478.75
0.1638,0.8362	-482.33
0.1759,0.8241	-480.89
0.2731,0.7269	-487.88
0.1356,0.8644	-478.75
0.1714,0.8286	-480.81
0.1229,0.8771	-478.82
0.1720,0.8280	-483.96
0.1467,0.8533	-478.81
0.2440,0.7560	-486.25
0.1344,0.8656	-482.47
0.1770,0.8230	-485.52
0.1345,0.8655	-480.61
0.1599,0.8401	-485.63
0.1938,0.8062	-482.71
0.2254,0.7746	-488.38
0.1489,0.8511	-482.32
0.1731,0.8269	-480.84
0.1272,0.8728	-480.70
0.1497,0.8503	-482.31
0.1756,0.8244	-483.97
0.2601,0.7399	-491.82
0.1596,0.8404	-483.97
0.1471,0.8529	-484.08
0.1283,0.8717	-484.52
0.1730,0.8270	-482.40
0.1704,0.8296	-488.70
0.2282,0.7718	-487.18
0.1640,0.8360	-482.33
0.1618,0.8382	-482.32
0.1564,0.8436	-478.93
0.1722,0.8278	-480.82
0.1739,0.8261	-483.97
0.2262,0.7738	-488.39
0.1258,0.8742	-484.60
0.1694,0.8306	-482.37
0.1468,0.8532	-487.61
0.1841,0.8159	-487.01
0.1636,0.8364	-480.69
0.2227,0.7773	-489.62
0.1258,0.8742	-486.54
0.1558,0.8442	-485.68
0.1937,0.8063	-485.56
0.2098,0.7902	-487.03
0.1694,0.8306	-487.13
0.2355,0.7645	-488.44
0.1097,0.8903	-481.19
0.1823,0.8177	-482.51
0.1966,0.8034	-486.98
0.1817,0.8183	-481.00
0.1618,0.8382	-483.96
0.2168,0.7832	-488.36
0.1072,0.8928	-489.78
0.1987,0.8013	-486.99
0.1675,0.8325	-482.35
0.2022,0.7978	-485.62
0.1721,0.8279	-483.96
0.1638,0.8362	-485.59
0.1248,0.8752	-488.53
0.1577,0.8423	-487.33
0.1351,0.8649	-486.17
0.1987,0.8013	-486.99
0.1740,0.8260	-485.52
0.2053,0.7947	-484.30
0.1304,0.8696	-482.55
0.1744,0.8256	-482.41
0.1562,0.8438	-482.30
0.2080,0.7920	-484.34
0.1340,0.8660	-486.21
0.1712,0.8288	-483.96
0.1485,0.8515	-482.32
0.1884,0.8116	-482.61
0.1543,0.8457	-482.30
0.1698,0.8302	-487.13
0.1512,0.8488	-484.03
0.1718,0.8282	-485.53
0.1537,0.8463	-485.72
0.1670,0.8330	-480.74
0.1634,0.8366	-483.96
0.1775,0.8225	-483.98
0.1589,0.8411	-483.97
0.1940,0.8060	-489.83
0.1242,0.8758	-482.71
0.1924,0.8076	-485.55
0.1984,0.8016	-484.19
0.1883,0.8117	-484.07
0.1496,0.8504	-482.31
0.1751,0.8249	-482.42
0.1438,0.8562	-487.70
0.2209,0.7791	-482.07
0.1989,0.8011	-486.99
0.1966,0.8034	-488.39
0.1564,0.8436	-480.62
0.2272,0.7728	-484.72
0.1368,0.8632	-480.59
0.2710,0.7290	-485.86
0.1932,0.8068	-482.69
0.1673,0.8327	-483.95
0.1462,0.8538	-487.63
0.2037,0.7963	-485.63
0.1122,0.8878	-485.23
0.2865,0.7135	-486.34
0.2025,0.7975	-484.25
0.1756,0.8244	-485.52
0.1471,0.8529	-485.84
0.2073,0.7927	-487.01
0.1217,0.8783	-482.78
0.3064,0.6936	-486.98
0.1586,0.8414	-485.64
0.1954,0.8046	-485.57
0.1791,0.8209	-483.99
0.1885,0.8115	-486.99
0.1281,0.8719	-480.68
0.3634,0.6366	-493.50
0.1832,0.8168	-485.52
0.1932,0.8068	-482.70
0.1985,0.8015	-484.19
0.1865,0.8135	-488.47
0.1399,0.8601	-484.21
0.4041,0.5959	-492.53
0.1642,0.8358	-483.96
0.2103,0.7897	-489.67
0.1687,0.8313	-485.55
0.1480,0.8520	-484.07
0.1399,0.8601	-482.39
0.3582,0.6418	-491.15
0.1184,0.8816	-480.89
0.2564,0.7436	-484.38
0.1830,0.8170	-484.02
0.1935,0.8065	-484.13
0.1337,0.8663	-480.62
0.3366,0.6634	-490.06
0.1228,0.8772	-482.75
0.2804,0.7196	-485.20
0.2196,0.7804	-490.90
0.1832,0.8168	-482.53
0.1270,0.8730	-488.41
0.3247,0.6753	-489.80
0.1627,0.8373	-479.04
0.2647,0.7353	-485.68
0.2117,0.7883	-481.78
0.1598,0.8402	-485.63
0.1747,0.8253	-483.97
0.3074,0.6926	-487.83
0.1630,0.8370	-485.59
0.2135,0.7865	-487.05
0.2283,0.7717	-488.40
0.1564,0.8436	-483.99
0.1974,0.8026	-482.78
0.3092,0.6908	-493.51
0.1581,0.8419	-482.31
0.2758,0.7242	-489.87
0.2281,0.7719	-489.62
0.1819,0.8181	-485.52
0.1807,0.8193	-485.51
0.2437,0.7563	-485.11
0.1656,0.8344	-483.95
0.2518,0.7482	-488.59
0.2525,0.7475	-488.60
0.1792,0.8208	-483.99
0.1953,0.8047	-488.40
0.2184,0.7816	-483.26
0.1240,0.8760	-480.76
0.2616,0.7384	-486.63
0.3131,0.6869	-486.42
0.1538,0.8462	-480.60
0.1734,0.8266	-490.21
0.1753,0.8247	-480.88
0.1429,0.8571	-482.36
0.2530,0.7470	-488.60
0.3284,0.6716	-488.45
0.1585,0.8415	-482.31
0.1627,0.8373	-479.04
0.1973,0.8027	-481.37
0.1431,0.8569	-482.36
0.2532,0.7468	-489.69
0.2991,0.7009	-489.30
0.1454,0.8546	-484.11
0.1598,0.8402	-482.31
0.1824,0.8176	-488.52
0.1441,0.8559	-485.91
0.2138,0.7862	-485.75
0.2774,0.7226	-487.97
0.1442,0.8558	-482.35
0.1585,0.8415	-485.64
0.1727,0.8273	-483.96
0.1600,0.8400	-483.97
0.2066,0.7934	-484.32
0.2440,0.7560	-488.51
0.1669,0.8331	-483.95
0.1422,0.8578	-482.37
0.1917,0.8083	-485.55
0.1789,0.8211	-483.99
0.1568,0.8432	-482.30
0.2819,0.7181	-487.13
0.1788,0.8212	-485.52
0.1192,0.8808	-480.87
0.2202,0.7798	-485.84
0.1540,0.8460	-485.71
0.1580,0.8420	-482.30
0.2423,0.7577	-486.22
0.1970,0.8030	-489.79
0.1273,0.8727	-484.55
0.2131,0.7869	-484.43
0.1628,0.8372	-485.60
0.1501,0.8499	-487.51
0.2600,0.7400	-491.82
0.1715,0.8285	-487.11
0.1288,0.8712	-482.59
0.1778,0.8222	-487.05
0.1590,0.8410	-483.97
0.1348,0.8652	-486.18
0.2927,0.7073	-487.42
0.2037,0.7963	-482.91
0.1102,0.8898	-481.17
0.1678,0.8322	-485.55
0.1469,0.8531	-487.60
0.0998,0.9002	-481.70
0.2830,0.7170	-490.88
0.1882,0.8118	-485.53
0.1186,0.8814	-478.88
0.1433,0.8567	-485.93
0.1332,0.8668	-486.24
0.1271,0.8729	-478.77
0.2294,0.7706	-487.19
0.1318,0.8682	-482.52
0.1170,0.8830	-480.93
0.1449,0.8551	-478.79
0.1385,0.8615	-486.06
0.1517,0.8483	-484.03
0.2019,0.7981	-484.24
0.1297,0.8703	-482.57
0.1272,0.8728	-484.55
0.1677,0.8323	-482.35
0.1514,0.8486	-482.31
0.1705,0.8295	-480.79
0.2181,0.7819	-487.08
0.1641,0.8359	-483.96
0.1226,0.8774	-486.69
0.1867,0.8133	-484.05
0.1229,0.8771	-482.75
0.1742,0.8258	-479.30
0.1839,0.8161	-484.03
0.1719,0.8281	-483.96
0.1128,0.8872	-479.01
0.1743,0.8257	-485.52
0.1092,0.8908	-485.41
0.1944,0.8056	-484.14
0.1821,0.8179	-484.01
0.1547,0.8453	-480.60
0.1061,0.8939	-479.22
0.1477,0.8523	-484.07
0.1141,0.8859	-481.03
0.1977,0.8023	-486.98
0.1654,0.8346	-480.72
0.1538,0.8462	-485.71
0.1057,0.8943	-485.65
0.1525,0.8475	-487.45
0.1007,0.8993	-486.02
0.1702,0.8298	-487.12
0.1939,0.8061	-484.13
0.1572,0.8428	-483.98
0.1102,0.8898	-485.35
0.1380,0.8620	-486.08
0.1097,0.8903	-485.38
0.2144,0.7856	-484.46
0.2076,0.7924	-483.00
0.1966,0.8034	-489.80
0.1310,0.8690	-484.43
0.1568,0.8432	-480.62
0.1320,0.8680	-480.63
0.2256,0.7744	-487.15
0.1585,0.8415	-485.64
0.2119,0.7881	-483.10
0.1351,0.8649	-478.75
0.1606,0.8394	-480.66
0.1268,0.8732	-488.43
0.2073,0.7927	-492.38
0.1709,0.8291	-487.12
0.2497,0.7503	-487.47
0.1321,0.8679	-482.51
0.1492,0.8508	-480.57
0.1353,0.8647	-482.46
0.2156,0.7844	-488.35
0.2042,0.7958	-487.00
0.2455,0.7545	-487.40
0.1378,0.8622	-482.42
0.1230,0.8770	-480.78
0.1411,0.8589	-484.18
0.2219,0.7781	-487.12
0.1910,0.8090	-482.66
0.2486,0.7514	-484.13
0.1597,0.8403	-480.65
0.1195,0.8805	-478.87
0.1307,0.8693	-482.54
0.2038,0.7962	-482.91
0.1535,0.8465	-480.60
0.2785,0.7215	-490.85
0.1585,0.8415	-485.64
0.1270,0.8730	-482.63
0.1067,0.8933	-481.32
0.1810,0.8190	-482.50
0.1711,0.8289	-482.38
0.2917,0.7083	-489.16
0.1486,0.8514	-478.83
0.1195,0.8805	-478.87
0.1259,0.8741	-488.48
0.1684,0.8316	-488.74
0.1636,0.8364	-482.33
0.3102,0.6898	-486.31
0.1632,0.8368	-485.59
0.1250,0.8750	-484.63
0.1382,0.8618	-480.58
0.1910,0.8090	-482.65
0.1530,0.8470	-480.59
0.2617,0.7383	-484.56
0.1482,0.8518	-484.07
0.1557,0.8443	-485.68
0.1271,0.8729	-478.77
0.1520,0.8480	-482.31
0.1622,0.8378	-482.32
0.1851,0.8149	-488.48
0.1216,0.8784	-482.79
0.1722,0.8278	-480.82
0.1330,0.8670	-484.37
0.1348,0.8652	-478.75
0.1914,0.8086	-485.54
0.1671,0.8329	-485.56
0.1154,0.8846	-485.06
0.1313,0.8687	-491.98
0.1434,0.8566	-484.14
0.1294,0.8706	-488.29
0.1433,0.8567	-484.14
0.1469,0.8531	-484.09
0.1047,0.8953	-485.72
0.0982,0.9018	-484.01
0.1312,0.8688	-478.75
0.1290,0.8710	-482.58
0.1584,0.8416	-478.96
0.1786,0.8214	-482.46
0.0986,0.9014	-488.41
0.0840,0.9160	-483.00
0.1597,0.8403	-485.63
0.1185,0.8815	-480.89
0.1447,0.8553	-484.12
0.1687,0.8313	-487.14
0.1277,0.8723	-484.53
0.0824,0.9176	-480.76
0.1404,0.8596	-482.38
0.1009,0.8991	-483.82
0.1630,0.8370	-485.59
0.1489,0.8511	-485.80
0.1338,0.8662	-480.61
0.0836,0.9164	-483.03
0.1289,0.8711	-480.67
0.1210,0.8790	-480.83
0.1698,0.8302	-482.37
0.1417,0.8583	-487.77
0.1529,0.8471	-482.30
0.0986,0.9014	-479.56
0.1073,0.8927	-481.30
0.1275,0.8725	-482.62
0.1832,0.8168	-487.01
0.1092,0.8908	-481.21
0.1551,0.8449	-484.00
0.0971,0.9029	-488.56
0.1200,0.8800	-480.85
0.1306,0.8694	-478.75
0.1907,0.8093	-488.43
0.1381,0.8619	-480.58
0.1330,0.8670	-484.37
0.1139,0.8861	-489.24
0.1199,0.8801	-486.83
0.1703,0.8297	-487.12
0.1685,0.8315	-488.74
0.1276,0.8724	-480.69
0.1683,0.8317	-482.36
0.1148,0.8852	-485.09
0.1244,0.8756	-484.65
0.1772,0.8228	-480.91
0.1596,0.8404	-482.31
0.1457,0.8543	-480.57
0.1776,0.8224	-488.58
0.0965,0.9035	-486.39
0.1329,0.8671	-478.75
0.1508,0.8492	-482.31
0.1323,0.8677	-480.63
0.1239,0.8761	-478.81
0.1618,0.8382	-485.61
0.0852,0.9148	-480.49
0.1259,0.8741	-478.78
0.1371,0.8629	-484.27
0.1243,0.8757	-478.80
0.1168,0.8832	-478.92
0.1680,0.8320	-480.75
0.0827,0.9173	-485.55
0.1347,0.8653	-486.19
0.1192,0.8808	-482.87
0.1581,0.8419	-483.98
0.1058,0.8942	-481.37
0.1712,0.8288	-482.38
0.0851,0.9149	-487.64
0.1264,0.8736	-482.65
0.1193,0.8807	-482.87
0.1510,0.8490	-485.76
0.1049,0.8951	-483.56
0.1854,0.8146	-484.04
0.0968,0.9032	-481.89
0.1431,0.8569	-485.94
0.1260,0.8740	-482.66
0.1995,0.8005	-485.60
0.1055,0.8945	-479.25
0.1372,0.8628	-482.43
0.0869,0.9131	-485.06
0.1665,0.8335	-485.56
0.1354,0.8646	-480.60
0.2144,0.7856	-487.05
0.0915,0.9085	-484.59
0.1528,0.8472	-489.15
0.0799,0.9201	-481.02
0.1770,0.8230	-483.98
0.1324,0.8676	-484.39
0.2060,0.7940	-484.31
0.0783,0.9217	-486.12
0.1669,0.8331	-483.95
0.0904,0.9096	-484.69
0.1662,0.8338	-483.95
0.1240,0.8760	-486.62
0.2632,0.7368	-485.64
0.1011,0.8989	-488.17
0.1847,0.8153	-482.55
0.1085,0.8915	-481.24
0.1754,0.8246	-487.07
0.1329,0.8671	-478.75
0.2546,0.7454	-489.70
0.1128,0.8872	-483.14
0.2036,0.7964	-485.63
0.0954,0.9046	-486.48
0.2023,0.7977	-486.99
0.1537,0.8463	-484.01
0.2876,0.7124	-490.00
0.1188,0.8812	-486.89
0.1824,0.8176	-482.51
0.0992,0.9008	-483.94
0.1955,0.8045	-484.15
0.1491,0.8509	-485.80
0.3374,0.6626	-489.41
0.1452,0.8548	-485.88
0.1904,0.8096	-482.64
0.0863,0.9137	-487.48
0.2210,0.7790	-484.59
0.1765,0.8235	-482.44
0.3079,0.6921	-490.27
0.1526,0.8474	-482.30
0.1610,0.8390	-480.66
0.0937,0.9063	-488.92
0.2018,0.7982	-489.74
0.1665,0.8335	-485.56
0.2749,0.7251	-485.98
0.1759,0.8241	-482.43
0.1529,0.8471	-482.30
0.1081,0.8919	-481.26
0.1519,0.8481	-485.75
0.1753,0.8247	-480.88
0.2575,0.7425	-487.60
0.2057,0.7943	-484.30
0.2052,0.7948	-484.30
0.1008,0.8992	-481.64
0.1574,0.8426	-483.98
0.1517,0.8483	-484.03
0.2928,0.7072	-486.54
0.1929,0.8071	-486.98
0.2166,0.7834	-485.78
0.0971,0.9029	-486.33
0.1694,0.8306	-482.37
0.1357,0.8643	-482.45
0.3133,0.6867	-487.21
0.2237,0.7763	-484.64
0.2565,0.7435	-486.51
0.1087,0.8913	-479.13
0.1784,0.8216	-480.93
0.1399,0.8601	-486.02
0.3039,0.6961	-488.56
0.2318,0.7682	-486.02
0.3010,0.6990	-487.65
0.1028,0.8972	-483.69
0.1674,0.8326	-483.95
0.1142,0.8858	-487.17
0.2969,0.7031	-489.25
0.2502,0.7498	-485.28
0.2738,0.7262	-487.90
0.0932,0.9068	-484.43
0.1914,0.8086	-484.10
0.1217,0.8783	-478.83
0.2998,0.7002	-487.61
0.2691,0.7309	-484.81
0.2799,0.7201	-488.02
0.0961,0.9039	-486.42
0.1745,0.8255	-485.52
0.1200,0.8800	-480.85
0.3198,0.6802	-486.68
0.2683,0.7317	-487.79
0.2670,0.7330	-486.76
0.0849,0.9151	-480.52
0.1726,0.8274	-482.39
0.1254,0.8746	-484.61
0.2689,0.7311	-487.80
0.2848,0.7152	-488.13
0.2392,0.7608	-485.00
0.0951,0.9049	-482.01
0.1638,0.8362	-483.96
0.1246,0.8754	-486.59
0.3079,0.6921	-484.60
0.3001,0.6999	-489.31
0.2532,0.7468	-486.44
0.0898,0.9102	-484.75
0.1653,0.8347	-482.33
0.1266,0.8734	-488.43
0.2964,0.7036	-489.25
0.3349,0.6651	-492.08
0.2118,0.7882	-487.04
0.0900,0.9100	-480.11
0.1713,0.8287	-480.81
0.1586,0.8414	-478.97
0.2825,0.7175	-486.21
0.3147,0.6853	-489.60
0.2166,0.7834	-488.36
0.0873,0.9127	-485.01
0.1527,0.8473	-484.02
0.1763,0.8237	-485.52
0.2342,0.7658	-487.25
0.2991,0.7009	-488.44
0.2011,0.7989	-484.23
0.0933,0.9067	-484.42
0.1518,0.8482	-480.59
0.1706,0.8294	-485.54
0.1973,0.8027	-481.37
0.3373,0.6627	-488.05
0.2424,0.7576	-483.94
0.0906,0.9094	-482.37
0.1426,0.8574	-480.57
0.1900,0.8100	-486.99
0.1882,0.8118	-485.53
0.3483,0.6517	-491.58
0.2224,0.7776	-485.87
0.1028,0.8972	-481.52
0.1313,0.8687	-480.64
0.2066,0.7934	-484.32
0.1817,0.8183	-491.54
0.3603,0.6397	-491.19
0.1974,0.8026	-491.19
0.1154,0.8846	-480.98
0.1199,0.8801	-482.85
0.2094,0.7906	-483.04
0.1990,0.8010	-485.59
0.3379,0.6621	-494.13
0.1852,0.8148	-481.08
0.1098,0.8902	-485.37
0.1188,0.8812	-482.89
0.2168,0.7832	-483.22
0.1483,0.8517	-482.32
0.2643,0.7357	-488.74
0.1721,0.8279	-482.39
0.1102,0.8898	-481.17
0.1328,0.8672	-484.38
0.2125,0.7875	-483.11
0.1468,0.8532	-482.33
0.2459,0.7541	-491.89
0.1422,0.8578	-485.96
0.1112,0.8888	-489.45
0.1322,0.8678	-482.51
0.2043,0.7957	-482.92
0.1491,0.8509	-480.57
0.2246,0.7754	-487.14
0.1689,0.8311	-482.36
0.1124,0.8876	-483.15
0.1018,0.8982	-481.58
0.2093,0.7907	-485.69
0.1568,0.8432	-485.67
0.2194,0.7806	-487.09
0.1955,0.8045	-484.15
0.1270,0.8730	-478.77
0.0889,0.9111	-482.52
0.1931,0.8069	-488.41
0.1567,0.8433	-483.99
0.2434,0.7566	-486.24
0.2185,0.7815	-484.54
0.1208,0.8792	-488.77
0.0827,0.9173	-480.73
0.1714,0.8286	-483.96
0.1801,0.8199	-482.48
0.2318,0.7682	-487.22
0.2468,0.7532	-489.65
0.1143,0.8857	-481.02
0.0904,0.9096	-487.01
0.2074,0.7926	-485.67
0.2039,0.7961	-484.27
0.2374,0.7626	-486.12
0.2373,0.7627	-484.95
0.1026,0.8974	-488.04
0.0873,0.9127	-480.31
0.2065,0.7935	-484.32
0.1716,0.8284	-482.38
0.2362,0.7638	-484.93
0.2478,0.7522	-488.55
0.1191,0.8809	-480.87
0.0884,0.9116	-484.89
0.2346,0.7654	-484.89
0.1662,0.8338	-487.18
0.2489,0.7511	-484.14
0.2311,0.7689	-484.81
0.1115,0.8885	-485.27
0.0877,0.9123	-484.97
0.2158,0.7842	-488.35
0.1342,0.8658	-484.34
0.2763,0.7237	-488.91
0.2436,0.7564	-486.24
0.1079,0.8921	-481.27
0.1000,0.9000	-483.88
0.2146,0.7854	-485.76
0.1670,0.8330	-482.35
0.2907,0.7093	-489.15
0.2693,0.7307	-491.80
0.1337,0.8663	-486.22
0.1130,0.8870	-481.06
0.2177,0.7823	-489.64
0.1840,0.8160	-485.52
0.3301,0.6699	-488.50
0.2480,0.7520	-488.55
0.1311,0.8689	-484.43
0.1299,0.8701	-484.46
0.2073,0.7927	-489.70
0.1566,0.8434	-480.62
0.2806,0.7194	-488.04
0.2644,0.7356	-489.76
0.1336,0.8664	-484.36
0.1576,0.8424	-482.30
0.1729,0.8271	-482.40
0.2137,0.7863	-481.84
0.2729,0.7271	-486.90
0.2250,0.7750	-485.91
0.1660,0.8340	-482.34
0.1832,0.8168	-481.03
0.1750,0.8250	-487.07
0.1707,0.8293	-482.38
0.3279,0.6721	-490.59
0.1926,0.8074	-484.12
0.1777,0.8223	-480.92
0.1640,0.8360	-483.96
0.1830,0.8170	-482.52
0.1866,0.8134	-488.47
0.2715,0.7285	-490.81
