#isoforms=['ENSG00000110080.SE.2.A.up_ENSG00000110080.SE.2.A.SE1_ENSG00000110080.SE.2.A.dn','ENSG00000110080.SE.2.B.up_ENSG00000110080.SE.2.B.dn']	exon_lens=('ENSG00000110080.SE.2.A.up',61),('ENSG00000110080.SE.2.A.SE1',96),('ENSG00000110080.SE.2.A.dn',190),('ENSG00000110080.SE.2.B.up',61),('ENSG00000110080.SE.2.B.dn',190)	iters=5000	burn_in=500	lag=10	percent_accept=94.87	proposal_type=drift	counts=(0,0):115,(1,0):186,(1,1):244	assigned_counts=0:429,1:1	chrom=chr11	strand=+	mRNA_starts=126407574,126407574	mRNA_ends=126408496,126408496
sampled_psi	log_score
0.9475,0.0525	-2498.85
0.9503,0.0497	-2492.77
0.9733,0.0267	-2477.79
0.9145,0.0855	-2507.86
0.9764,0.0236	-2470.17
0.9621,0.0379	-2485.49
0.9545,0.0455	-2498.48
0.9595,0.0405	-2466.76
0.9722,0.0278	-2488.54
0.9178,0.0822	-2533.93
0.9738,0.0262	-2474.14
0.9637,0.0363	-2501.75
0.9494,0.0506	-2498.72
0.9646,0.0354	-2481.99
0.9726,0.0274	-2470.70
0.9176,0.0824	-2524.29
0.9764,0.0236	-2481.34
0.9684,0.0316	-2505.61
0.9589,0.0411	-2501.55
0.9628,0.0372	-2485.43
0.9639,0.0361	-2485.35
0.9336,0.0664	-2502.89
0.9767,0.0233	-2488.81
0.9688,0.0312	-2474.75
0.9571,0.0429	-2489.10
0.9545,0.0455	-2486.30
0.9625,0.0375	-2485.46
0.9160,0.0840	-2533.93
0.9797,0.0203	-2469.80
0.9643,0.0357	-2491.91
0.9588,0.0412	-2485.81
0.9453,0.0547	-2499.02
0.9599,0.0401	-2495.22
0.9281,0.0719	-2518.88
0.9832,0.0168	-2465.45
0.9634,0.0366	-2478.85
0.9625,0.0375	-2482.21
0.9490,0.0510	-2504.60
0.9613,0.0387	-2504.84
0.9134,0.0866	-2524.52
0.9847,0.0153	-2456.97
0.9677,0.0323	-2478.30
0.9664,0.0336	-2488.54
0.9554,0.0446	-2495.39
0.9585,0.0415	-2479.56
0.8974,0.1026	-2545.41
0.9784,0.0216	-2462.31
0.9698,0.0302	-2474.61
0.9691,0.0309	-2488.50
0.9616,0.0384	-2508.08
0.9591,0.0409	-2507.86
0.9142,0.0858	-2526.84
0.9786,0.0214	-2469.91
0.9700,0.0300	-2471.12
0.9685,0.0315	-2481.65
0.9500,0.0500	-2507.52
0.9629,0.0371	-2488.68
0.9366,0.0634	-2516.04
0.9831,0.0169	-2485.78
0.9703,0.0297	-2485.01
0.9706,0.0294	-2471.02
0.9371,0.0629	-2540.35
0.9578,0.0422	-2495.29
0.9344,0.0656	-2505.46
0.9833,0.0167	-2461.36
0.9680,0.0320	-2502.14
0.9753,0.0247	-2477.67
0.9285,0.0715	-2508.61
0.9493,0.0507	-2501.66
0.9523,0.0477	-2480.61
0.9834,0.0166	-2461.35
0.9652,0.0348	-2485.25
0.9754,0.0246	-2496.06
0.9192,0.0808	-2509.63
0.9344,0.0656	-2524.05
0.9471,0.0529	-2490.22
0.9848,0.0152	-2469.46
0.9684,0.0316	-2515.89
0.9745,0.0255	-2470.43
0.9241,0.0759	-2521.55
0.9356,0.0644	-2491.96
0.9611,0.0389	-2492.00
0.9854,0.0146	-2461.02
0.9728,0.0272	-2502.86
0.9803,0.0197	-2473.65
0.9406,0.0594	-2524.30
0.9376,0.0624	-2513.31
0.9640,0.0360	-2485.34
0.9845,0.0155	-2473.62
0.9717,0.0283	-2492.06
0.9817,0.0183	-2461.66
0.9452,0.0548	-2513.27
0.9402,0.0598	-2510.51
0.9670,0.0330	-2485.14
0.9822,0.0178	-2469.59
0.9704,0.0296	-2481.52
0.9859,0.0141	-2482.18
0.9386,0.0614	-2505.11
0.9421,0.0579	-2521.61
0.9700,0.0300	-2481.54
0.9790,0.0210	-2469.87
0.9657,0.0343	-2495.23
0.9848,0.0152	-2477.80
0.9426,0.0574	-2499.25
0.9475,0.0525	-2498.85
0.9694,0.0306	-2481.59
0.9748,0.0252	-2488.66
0.9657,0.0343	-2475.21
0.9868,0.0132	-2469.44
0.9485,0.0515	-2492.95
0.9354,0.0646	-2516.06
0.9736,0.0264	-2495.81
0.9728,0.0272	-2484.98
0.9631,0.0369	-2482.14
0.9855,0.0145	-2461.00
0.9462,0.0538	-2530.49
0.9368,0.0632	-2505.25
0.9777,0.0223	-2466.23
0.9729,0.0271	-2481.40
0.9596,0.0404	-2492.06
0.9858,0.0142	-2473.68
0.9397,0.0603	-2510.52
0.9161,0.0839	-2512.41
0.9793,0.0207	-2458.26
0.9728,0.0272	-2470.67
0.9642,0.0358	-2495.20
0.9814,0.0186	-2477.58
0.9303,0.0697	-2531.77
0.8982,0.1018	-2538.87
0.9765,0.0235	-2473.89
0.9671,0.0329	-2474.99
0.9594,0.0406	-2482.59
0.9835,0.0165	-2453.15
0.9298,0.0702	-2523.99
0.9179,0.0821	-2519.44
0.9745,0.0255	-2477.71
0.9669,0.0331	-2488.52
0.9524,0.0476	-2501.56
0.9836,0.0164	-2461.31
0.9405,0.0595	-2524.30
0.9200,0.0800	-2524.18
0.9679,0.0321	-2478.29
0.9647,0.0353	-2481.98
0.9636,0.0364	-2488.64
0.9796,0.0204	-2481.42
0.9505,0.0495	-2498.66
0.9012,0.0988	-2527.71
0.9629,0.0371	-2491.94
0.9698,0.0302	-2478.09
0.9664,0.0336	-2481.81
0.9772,0.0228	-2477.59
0.9486,0.0514	-2507.52
0.9036,0.0964	-2529.76
0.9711,0.0289	-2467.42
0.9639,0.0361	-2488.63
0.9721,0.0279	-2509.84
0.9736,0.0264	-2481.38
0.9355,0.0645	-2516.05
0.9009,0.0991	-2545.40
0.9739,0.0261	-2481.37
0.9590,0.0410	-2492.09
0.9745,0.0255	-2470.43
0.9690,0.0310	-2478.17
0.9413,0.0587	-2502.15
0.8973,0.1027	-2517.24
0.9789,0.0211	-2466.04
0.9484,0.0516	-2495.87
0.9744,0.0256	-2474.07
0.9781,0.0219	-2477.57
0.9410,0.0590	-2513.25
0.9015,0.0985	-2523.26
0.9803,0.0197	-2477.56
0.9483,0.0517	-2498.79
0.9732,0.0268	-2502.94
0.9790,0.0210	-2477.55
0.9463,0.0537	-2490.33
0.8972,0.1028	-2543.25
0.9789,0.0211	-2477.56
0.9558,0.0442	-2489.22
0.9777,0.0223	-2485.14
0.9808,0.0192	-2481.50
0.9410,0.0590	-2513.25
0.8784,0.1216	-2538.23
0.9779,0.0221	-2477.57
0.9554,0.0446	-2486.19
0.9798,0.0202	-2469.79
0.9771,0.0229	-2470.09
0.9368,0.0632	-2524.12
0.8404,0.1596	-2573.39
0.9790,0.0210	-2473.71
0.9627,0.0373	-2488.69
0.9812,0.0188	-2469.67
0.9801,0.0199	-2465.87
0.9416,0.0584	-2504.91
0.8258,0.1742	-2577.27
0.9755,0.0245	-2470.29
0.9666,0.0334	-2478.43
0.9783,0.0217	-2481.37
0.9815,0.0185	-2473.61
0.9506,0.0494	-2480.91
0.8718,0.1282	-2554.28
0.9711,0.0289	-2488.51
0.9691,0.0309	-2474.71
0.9839,0.0161	-2469.49
0.9770,0.0230	-2477.59
0.9549,0.0451	-2489.31
0.8898,0.1102	-2539.31
0.9715,0.0285	-2481.46
0.9740,0.0260	-2481.37
0.9841,0.0159	-2477.73
0.9719,0.0281	-2481.44
0.9648,0.0352	-2505.14
0.9060,0.0940	-2522.80
0.9629,0.0371	-2478.91
0.9670,0.0330	-2505.41
0.9843,0.0157	-2461.20
0.9735,0.0265	-2459.76
0.9686,0.0314	-2491.93
0.8884,0.1116	-2537.33
0.9698,0.0302	-2491.97
0.9651,0.0349	-2488.58
0.9828,0.0172	-2481.69
0.9715,0.0285	-2474.40
0.9694,0.0306	-2485.04
0.8904,0.1096	-2551.84
0.9775,0.0225	-2466.26
0.9622,0.0378	-2488.72
0.9823,0.0177	-2469.58
0.9731,0.0269	-2484.98
0.9656,0.0344	-2488.56
0.8722,0.1278	-2552.34
0.9761,0.0239	-2466.51
0.9610,0.0390	-2485.59
0.9848,0.0152	-2456.94
0.9676,0.0324	-2502.10
0.9606,0.0394	-2517.57
0.8840,0.1160	-2549.88
0.9760,0.0240	-2470.23
0.9551,0.0449	-2486.23
0.9842,0.0158	-2461.21
0.9699,0.0301	-2491.97
0.9560,0.0440	-2498.44
0.8818,0.1182	-2535.88
0.9774,0.0226	-2466.29
0.9499,0.0501	-2492.81
0.9817,0.0183	-2481.57
0.9614,0.0386	-2482.34
0.9582,0.0418	-2492.14
0.8916,0.1084	-2528.66
0.9757,0.0243	-2503.49
0.9457,0.0543	-2504.70
0.9812,0.0188	-2461.75
0.9657,0.0343	-2475.21
0.9543,0.0457	-2495.44
0.8817,0.1183	-2543.93
0.9676,0.0324	-2491.91
0.9532,0.0468	-2492.50
0.9842,0.0158	-2461.22
0.9657,0.0343	-2498.57
0.9560,0.0440	-2483.04
0.8620,0.1380	-2547.50
0.9643,0.0357	-2505.09
0.9582,0.0418	-2485.87
0.9871,0.0129	-2456.42
0.9614,0.0386	-2501.63
0.9618,0.0382	-2504.87
0.8763,0.1237	-2542.36
0.9661,0.0339	-2491.90
0.9616,0.0384	-2501.64
0.9883,0.0117	-2469.48
0.9629,0.0371	-2495.19
0.9691,0.0309	-2474.71
0.8810,0.1190	-2537.97
0.9687,0.0313	-2481.64
0.9532,0.0468	-2504.56
0.9871,0.0129	-2482.46
0.9663,0.0337	-2468.40
0.9695,0.0305	-2485.04
0.8747,0.1253	-2552.22
0.9696,0.0304	-2481.57
0.9473,0.0527	-2504.64
0.9846,0.0154	-2473.62
0.9591,0.0409	-2488.93
0.9668,0.0332	-2475.04
0.8779,0.1221	-2528.42
0.9720,0.0280	-2477.89
0.9495,0.0505	-2507.52
0.9871,0.0129	-2456.44
0.9546,0.0454	-2504.57
0.9735,0.0265	-2470.57
0.8879,0.1121	-2539.44
0.9714,0.0286	-2495.57
0.9406,0.0594	-2499.45
0.9855,0.0145	-2456.78
0.9507,0.0493	-2519.36
0.9758,0.0242	-2481.34
0.8903,0.1097	-2518.35
0.9585,0.0415	-2495.26
0.9423,0.0577	-2504.87
0.9889,0.0111	-2478.50
0.9446,0.0554	-2501.92
0.9732,0.0268	-2488.57
0.9226,0.0774	-2514.18
0.9523,0.0477	-2492.58
0.9527,0.0473	-2489.54
0.9867,0.0133	-2469.44
0.9526,0.0474	-2495.55
0.9771,0.0229	-2470.08
0.9088,0.0912	-2513.35
0.9546,0.0454	-2477.15
0.9494,0.0506	-2478.19
0.9872,0.0128	-2465.10
0.9694,0.0306	-2488.50
0.9805,0.0195	-2469.72
0.9095,0.0905	-2538.63
0.9621,0.0379	-2485.49
0.9537,0.0463	-2480.35
0.9867,0.0133	-2469.44
0.9670,0.0330	-2475.01
0.9763,0.0237	-2477.62
0.9000,0.1000	-2527.82
0.9584,0.0416	-2495.26
0.9503,0.0497	-2504.57
0.9873,0.0127	-2469.44
0.9630,0.0370	-2482.16
0.9729,0.0271	-2477.82
0.8931,0.1069	-2539.11
0.9513,0.0487	-2486.73
0.9478,0.0522	-2516.23
0.9856,0.0144	-2473.67
0.9605,0.0395	-2479.25
0.9695,0.0305	-2471.20
0.9027,0.0973	-2523.14
0.9438,0.0562	-2504.79
0.9333,0.0667	-2516.11
0.9810,0.0190	-2489.39
0.9587,0.0413	-2488.97
0.9690,0.0310	-2485.05
0.9092,0.0908	-2538.63
0.9495,0.0505	-2492.85
0.9352,0.0648	-2516.06
0.9829,0.0171	-2457.39
0.9567,0.0433	-2498.42
0.9672,0.0328	-2502.06
0.9164,0.0836	-2541.11
0.9520,0.0480	-2504.56
0.9209,0.0791	-2519.24
0.9845,0.0155	-2469.47
0.9532,0.0468	-2495.51
0.9634,0.0366	-2498.47
0.9100,0.0900	-2529.38
0.9556,0.0444	-2495.38
0.9195,0.0805	-2516.90
0.9822,0.0178	-2473.60
0.9510,0.0490	-2498.63
0.9670,0.0330	-2488.52
0.9179,0.0821	-2507.38
0.9560,0.0440	-2492.28
0.9048,0.0952	-2531.92
0.9841,0.0159	-2465.36
0.9580,0.0420	-2489.02
0.9614,0.0386	-2498.41
0.9384,0.0616	-2505.12
0.9564,0.0436	-2473.72
0.9034,0.0966	-2538.71
0.9889,0.0111	-2474.00
0.9534,0.0466	-2504.56
0.9634,0.0366	-2478.84
0.9364,0.0636	-2516.04
0.9659,0.0341	-2488.55
0.9137,0.0863	-2515.07
0.9881,0.0119	-2473.90
0.9616,0.0384	-2475.88
0.9704,0.0296	-2481.52
0.9452,0.0548	-2501.87
0.9631,0.0369	-2504.98
0.9209,0.0791	-2514.33
0.9851,0.0149	-2465.26
0.9669,0.0331	-2478.40
0.9656,0.0344	-2488.56
0.9504,0.0496	-2498.67
0.9641,0.0359	-2485.33
0.9110,0.0890	-2536.31
0.9854,0.0146	-2469.44
0.9712,0.0288	-2484.99
0.9716,0.0284	-2506.18
0.9575,0.0425	-2498.41
0.9676,0.0324	-2481.72
0.9280,0.0720	-2508.66
0.9877,0.0123	-2469.46
0.9717,0.0283	-2488.52
0.9703,0.0297	-2471.07
0.9663,0.0337	-2491.90
0.9647,0.0353	-2511.75
0.9253,0.0747	-2503.90
0.9862,0.0138	-2460.89
0.9697,0.0303	-2488.50
0.9652,0.0348	-2485.26
0.9708,0.0292	-2478.00
0.9632,0.0368	-2501.72
0.9232,0.0768	-2543.97
0.9867,0.0133	-2456.52
0.9724,0.0276	-2474.29
0.9609,0.0391	-2485.60
0.9774,0.0226	-2481.35
0.9641,0.0359	-2485.33
0.9306,0.0694	-2516.21
0.9867,0.0133	-2473.74
0.9727,0.0273	-2484.98
0.9609,0.0391	-2514.41
0.9793,0.0207	-2477.55
0.9648,0.0352	-2475.34
0.9439,0.0561	-2490.66
0.9887,0.0113	-2469.51
0.9723,0.0277	-2470.76
0.9637,0.0363	-2482.09
0.9782,0.0218	-2488.97
0.9752,0.0248	-2488.69
0.9507,0.0493	-2513.45
0.9858,0.0142	-2465.19
0.9735,0.0265	-2492.19
0.9620,0.0380	-2488.73
0.9760,0.0240	-2485.05
0.9824,0.0176	-2473.60
0.9568,0.0432	-2498.42
0.9835,0.0165	-2473.60
0.9754,0.0246	-2488.70
0.9653,0.0347	-2485.25
0.9719,0.0281	-2481.44
0.9835,0.0165	-2465.42
0.9539,0.0461	-2519.71
0.9876,0.0124	-2465.08
0.9796,0.0204	-2485.30
0.9714,0.0286	-2495.57
0.9712,0.0288	-2474.44
0.9808,0.0192	-2485.44
0.9437,0.0563	-2493.52
0.9848,0.0152	-2477.80
0.9807,0.0193	-2485.42
0.9719,0.0281	-2481.44
0.9746,0.0254	-2470.41
0.9791,0.0209	-2477.55
0.9418,0.0582	-2521.60
0.9842,0.0158	-2477.74
0.9795,0.0205	-2465.95
0.9684,0.0316	-2488.50
0.9753,0.0247	-2459.28
0.9770,0.0230	-2496.35
0.9520,0.0480	-2486.63
0.9796,0.0204	-2462.06
0.9803,0.0197	-2493.19
0.9740,0.0260	-2481.37
0.9764,0.0236	-2473.90
0.9753,0.0247	-2477.67
0.9521,0.0479	-2504.56
0.9776,0.0224	-2473.80
0.9791,0.0209	-2462.17
0.9688,0.0312	-2488.50
0.9750,0.0250	-2474.02
0.9675,0.0325	-2471.54
0.9613,0.0387	-2488.78
0.9778,0.0222	-2473.79
0.9764,0.0236	-2492.50
0.9716,0.0284	-2477.92
0.9759,0.0241	-2488.74
0.9671,0.0329	-2474.99
0.9624,0.0376	-2485.47
0.9737,0.0263	-2463.31
0.9696,0.0304	-2478.11
0.9678,0.0322	-2488.51
0.9750,0.0250	-2499.66
0.9594,0.0406	-2492.07
0.9670,0.0330	-2498.65
0.9708,0.0292	-2488.51
0.9618,0.0382	-2466.16
0.9635,0.0365	-2491.92
0.9762,0.0238	-2473.91
0.9633,0.0367	-2504.99
0.9709,0.0291	-2488.51
0.9735,0.0265	-2477.78
0.9575,0.0425	-2501.52
0.9653,0.0347	-2485.25
0.9751,0.0249	-2488.68
0.9652,0.0348	-2488.57
0.9739,0.0261	-2484.99
0.9691,0.0309	-2488.50
0.9505,0.0495	-2483.89
0.9682,0.0318	-2491.92
0.9764,0.0236	-2470.17
0.9625,0.0375	-2495.19
0.9716,0.0284	-2481.46
0.9723,0.0277	-2481.43
0.9602,0.0398	-2488.85
0.9696,0.0304	-2481.57
0.9763,0.0237	-2481.34
0.9528,0.0472	-2477.51
0.9644,0.0356	-2478.71
0.9735,0.0265	-2477.78
0.9547,0.0453	-2507.62
0.9612,0.0388	-2485.58
0.9721,0.0279	-2488.53
0.9557,0.0443	-2495.37
0.9608,0.0392	-2482.41
0.9651,0.0349	-2485.26
0.9550,0.0450	-2504.57
0.9577,0.0423	-2498.41
0.9683,0.0317	-2485.08
0.9626,0.0374	-2508.18
0.9634,0.0366	-2482.11
0.9704,0.0296	-2481.52
0.9542,0.0458	-2489.38
0.9621,0.0379	-2485.49
0.9644,0.0356	-2472.11
0.9695,0.0305	-2481.58
0.9605,0.0395	-2488.83
0.9680,0.0320	-2481.68
0.9616,0.0384	-2485.54
0.9681,0.0319	-2478.26
0.9679,0.0321	-2478.29
0.9742,0.0258	-2466.84
0.9659,0.0341	-2471.83
0.9702,0.0298	-2491.98
0.9640,0.0360	-2488.62
0.9763,0.0237	-2488.78
0.9662,0.0338	-2498.60
0.9674,0.0326	-2474.95
0.9662,0.0338	-2478.48
0.9674,0.0326	-2505.46
0.9644,0.0356	-2495.21
0.9714,0.0286	-2474.42
0.9703,0.0297	-2478.04
0.9572,0.0428	-2489.09
0.9638,0.0362	-2485.35
0.9704,0.0296	-2485.01
0.9610,0.0390	-2479.18
0.9737,0.0263	-2488.60
0.9765,0.0235	-2481.34
0.9435,0.0565	-2518.88
0.9614,0.0386	-2482.34
0.9685,0.0315	-2495.35
0.9629,0.0371	-2514.73
0.9737,0.0263	-2495.82
0.9763,0.0237	-2481.34
0.9382,0.0618	-2505.14
0.9697,0.0303	-2485.03
0.9715,0.0285	-2477.93
0.9527,0.0473	-2492.55
0.9764,0.0236	-2488.79
0.9783,0.0217	-2466.13
0.9380,0.0620	-2502.44
0.9726,0.0274	-2474.28
0.9747,0.0253	-2481.35
0.9586,0.0414	-2485.83
0.9788,0.0212	-2489.05
0.9773,0.0227	-2470.07
0.9339,0.0661	-2516.09
0.9765,0.0235	-2462.71
0.9739,0.0261	-2484.99
0.9687,0.0313	-2491.93
0.9787,0.0213	-2485.21
0.9773,0.0227	-2477.59
0.9263,0.0737	-2513.89
0.9791,0.0209	-2473.71
0.9763,0.0237	-2470.19
0.9671,0.0329	-2478.38
0.9792,0.0208	-2473.70
0.9790,0.0210	-2477.55
0.9332,0.0668	-2502.93
0.9747,0.0253	-2477.70
0.9717,0.0283	-2474.38
0.9679,0.0321	-2478.29
0.9805,0.0195	-2465.80
0.9793,0.0207	-2485.27
0.9366,0.0634	-2510.65
0.9786,0.0214	-2477.56
0.9754,0.0246	-2477.66
0.9706,0.0294	-2481.51
0.9824,0.0176	-2477.62
0.9760,0.0240	-2492.45
0.9332,0.0668	-2526.66
0.9786,0.0214	-2477.56
0.9780,0.0220	-2458.59
0.9705,0.0295	-2485.01
0.9812,0.0188	-2481.53
0.9812,0.0188	-2485.49
0.9294,0.0706	-2521.41
0.9777,0.0223	-2466.23
0.9746,0.0254	-2474.06
0.9741,0.0259	-2488.62
0.9758,0.0242	-2481.34
0.9794,0.0206	-2481.41
0.9345,0.0655	-2492.16
0.9818,0.0182	-2465.63
0.9706,0.0294	-2474.51
0.9746,0.0254	-2470.41
0.9688,0.0312	-2498.80
0.9796,0.0204	-2477.55
0.9255,0.0745	-2511.43
0.9806,0.0194	-2477.56
0.9717,0.0283	-2470.83
0.9698,0.0302	-2478.09
0.9711,0.0289	-2474.46
0.9836,0.0164	-2469.51
0.9426,0.0574	-2510.45
0.9839,0.0161	-2473.60
0.9758,0.0242	-2462.85
0.9646,0.0354	-2478.68
0.9722,0.0278	-2492.09
0.9767,0.0233	-2466.39
0.9401,0.0599	-2496.74
0.9857,0.0143	-2473.67
0.9739,0.0261	-2488.61
0.9684,0.0316	-2495.35
0.9707,0.0293	-2485.00
0.9755,0.0245	-2466.61
0.9438,0.0562	-2504.79
0.9849,0.0151	-2486.17
0.9778,0.0222	-2477.57
0.9713,0.0287	-2481.47
0.9647,0.0353	-2485.28
0.9740,0.0260	-2492.23
0.9369,0.0631	-2516.03
0.9855,0.0145	-2486.30
0.9760,0.0240	-2481.34
0.9764,0.0236	-2492.51
0.9568,0.0432	-2470.54
0.9717,0.0283	-2481.45
0.9354,0.0646	-2508.04
0.9901,0.0099	-2483.42
0.9777,0.0223	-2488.91
0.9793,0.0207	-2469.84
0.9597,0.0403	-2498.40
0.9720,0.0280	-2481.44
0.9372,0.0628	-2491.70
0.9872,0.0128	-2478.14
0.9820,0.0180	-2473.60
0.9795,0.0205	-2481.42
0.9616,0.0384	-2495.20
0.9649,0.0351	-2481.96
0.9435,0.0565	-2490.73
0.9879,0.0121	-2465.06
0.9878,0.0122	-2460.67
0.9793,0.0207	-2458.28
0.9606,0.0394	-2485.63
0.9591,0.0409	-2485.78
0.9481,0.0519	-2504.62
0.9870,0.0130	-2460.78
0.9883,0.0117	-2482.80
0.9783,0.0217	-2473.76
0.9591,0.0409	-2498.40
0.9591,0.0409	-2485.77
0.9608,0.0392	-2485.61
0.9828,0.0172	-2469.55
0.9865,0.0135	-2473.73
0.9783,0.0217	-2469.94
0.9547,0.0453	-2486.28
0.9650,0.0350	-2485.26
0.9586,0.0414	-2498.40
0.9787,0.0213	-2469.91
0.9897,0.0103	-2460.45
0.9773,0.0227	-2470.06
0.9578,0.0422	-2501.53
0.9596,0.0404	-2488.90
0.9544,0.0456	-2504.57
0.9809,0.0191	-2473.63
0.9895,0.0105	-2460.47
0.9781,0.0219	-2469.96
0.9583,0.0417	-2501.54
0.9566,0.0434	-2482.96
0.9538,0.0462	-2492.45
0.9779,0.0221	-2466.19
0.9873,0.0127	-2469.45
0.9720,0.0280	-2474.34
0.9633,0.0367	-2482.13
0.9545,0.0455	-2507.61
0.9315,0.0685	-2513.56
0.9819,0.0181	-2461.63
0.9808,0.0192	-2481.50
0.9712,0.0288	-2481.47
0.9616,0.0384	-2485.54
0.9557,0.0443	-2476.94
0.9215,0.0785	-2511.81
0.9858,0.0142	-2465.19
0.9772,0.0228	-2488.87
0.9735,0.0265	-2477.78
0.9645,0.0355	-2498.51
0.9652,0.0348	-2485.25
0.9117,0.0883	-2531.63
0.9832,0.0168	-2473.60
0.9809,0.0191	-2465.75
0.9791,0.0209	-2477.55
0.9696,0.0304	-2512.74
0.9588,0.0412	-2488.96
0.9193,0.0807	-2514.48
0.9794,0.0206	-2465.96
0.9814,0.0186	-2461.71
0.9817,0.0183	-2481.58
0.9663,0.0337	-2485.19
0.9703,0.0297	-2481.53
0.9171,0.0829	-2524.31
0.9793,0.0207	-2489.13
0.9825,0.0175	-2465.54
0.9779,0.0221	-2477.57
0.9608,0.0392	-2492.01
0.9585,0.0415	-2498.40
0.9185,0.0815	-2519.40
0.9760,0.0240	-2466.52
0.9820,0.0180	-2477.60
0.9739,0.0261	-2484.99
0.9524,0.0476	-2507.55
0.9678,0.0322	-2512.33
0.9301,0.0699	-2518.81
0.9790,0.0210	-2469.87
0.9786,0.0214	-2477.56
0.9676,0.0324	-2478.32
0.9380,0.0620	-2513.30
0.9573,0.0427	-2492.20
0.9294,0.0706	-2516.26
0.9786,0.0214	-2469.91
0.9820,0.0180	-2477.60
0.9694,0.0306	-2481.59
0.9291,0.0709	-2498.26
0.9498,0.0502	-2501.64
0.9353,0.0647	-2510.72
0.9802,0.0198	-2489.26
0.9845,0.0155	-2469.47
0.9698,0.0302	-2474.62
0.9250,0.0750	-2511.47
0.9491,0.0509	-2489.97
0.9440,0.0560	-2524.55
0.9853,0.0147	-2465.24
0.9891,0.0109	-2465.02
0.9693,0.0307	-2488.50
0.9153,0.0847	-2541.07
0.9429,0.0571	-2518.86
0.9434,0.0566	-2507.62
0.9808,0.0192	-2481.50
0.9868,0.0132	-2473.75
0.9690,0.0310	-2488.50
0.9139,0.0861	-2517.40
0.9470,0.0530	-2501.77
0.9288,0.0712	-2534.26
0.9826,0.0174	-2477.63
0.9892,0.0108	-2455.98
0.9758,0.0242	-2481.34
0.9287,0.0713	-2516.29
0.9504,0.0496	-2501.62
0.9291,0.0709	-2518.84
0.9825,0.0175	-2477.62
0.9871,0.0129	-2460.76
0.9813,0.0187	-2469.65
0.9284,0.0716	-2513.74
0.9301,0.0699	-2498.10
0.9362,0.0638	-2507.98
0.9846,0.0154	-2477.78
0.9862,0.0138	-2456.62
0.9815,0.0185	-2489.50
0.9177,0.0823	-2521.87
0.9386,0.0614	-2526.93
0.9344,0.0656	-2505.45
0.9811,0.0189	-2469.67
0.9881,0.0119	-2469.47
0.9788,0.0212	-2462.23
0.9171,0.0829	-2526.71
0.9428,0.0572	-2504.84
0.9342,0.0658	-2500.16
0.9814,0.0186	-2477.58
0.9856,0.0144	-2465.21
0.9761,0.0239	-2466.49
0.9152,0.0848	-2507.76
0.9531,0.0469	-2474.44
0.9361,0.0639	-2521.41
0.9773,0.0227	-2473.83
0.9868,0.0132	-2465.12
0.9746,0.0254	-2474.06
0.9193,0.0807	-2519.34
0.9469,0.0531	-2498.89
0.9355,0.0645	-2510.71
0.9739,0.0261	-2492.22
0.9846,0.0154	-2465.30
0.9741,0.0259	-2484.99
0.9316,0.0684	-2508.33
0.9394,0.0606	-2502.31
0.9411,0.0589	-2507.71
0.9764,0.0236	-2485.06
0.9833,0.0167	-2465.45
0.9698,0.0302	-2495.44
0.9182,0.0818	-2514.59
0.9429,0.0571	-2499.23
0.9379,0.0621	-2507.88
0.9780,0.0220	-2473.77
0.9819,0.0181	-2461.62
0.9650,0.0350	-2475.31
0.9147,0.0853	-2533.93
0.9395,0.0605	-2491.33
0.9322,0.0678	-2500.42
0.9772,0.0228	-2470.07
0.9793,0.0207	-2469.84
0.9681,0.0319	-2474.85
0.9209,0.0791	-2514.33
0.9501,0.0499	-2492.79
0.9324,0.0676	-2505.64
0.9772,0.0228	-2481.35
0.9796,0.0204	-2473.68
0.9616,0.0384	-2491.98
0.9291,0.0709	-2516.27
0.9401,0.0599	-2510.51
0.9467,0.0533	-2490.28
0.9812,0.0188	-2457.80
0.9821,0.0179	-2461.58
0.9629,0.0371	-2488.68
0.9435,0.0565	-2490.73
0.9421,0.0579	-2513.25
0.9477,0.0523	-2504.63
0.9835,0.0165	-2469.51
0.9818,0.0182	-2473.61
0.9667,0.0333	-2488.53
0.9463,0.0537	-2498.94
0.9406,0.0594	-2510.50
0.9483,0.0517	-2498.80
0.9809,0.0191	-2461.81
0.9853,0.0147	-2482.05
0.9639,0.0361	-2482.06
0.9482,0.0518	-2495.89
0.9597,0.0403	-2507.91
0.9541,0.0459	-2492.42
0.9775,0.0225	-2515.30
0.9827,0.0173	-2469.55
0.9615,0.0385	-2482.33
0.9450,0.0550	-2499.05
0.9609,0.0391	-2495.21
0.9577,0.0423	-2514.00
0.9824,0.0176	-2461.54
0.9809,0.0191	-2461.81
0.9468,0.0532	-2510.42
0.9318,0.0682	-2497.85
0.9600,0.0400	-2498.40
0.9615,0.0385	-2488.76
0.9847,0.0153	-2486.12
0.9858,0.0142	-2477.91
0.9477,0.0523	-2498.83
0.9293,0.0707	-2505.95
0.9645,0.0355	-2482.00
0.9508,0.0492	-2492.72
0.9870,0.0130	-2469.44
