#isoforms=['ENSG00000101294.SE.1.A.up_ENSG00000101294.SE.1.A.SE1_ENSG00000101294.SE.1.A.dn','ENSG00000101294.SE.1.B.up_ENSG00000101294.SE.1.B.dn']	exon_lens=('ENSG00000101294.SE.1.A.up',99),('ENSG00000101294.SE.1.A.SE1',376),('ENSG00000101294.SE.1.A.dn',89),('ENSG00000101294.SE.1.B.up',99),('ENSG00000101294.SE.1.B.dn',89)	iters=5000	burn_in=500	lag=10	percent_accept=98.14	proposal_type=drift	counts=(0,0):587,(1,0):48	assigned_counts=0:48	chrom=chr20	strand=+	mRNA_starts=31527484,31527484	mRNA_ends=31545035,31545035
sampled_psi	log_score
0.9028,0.0972	-295.69
0.8351,0.1649	-296.48
0.7978,0.2022	-296.97
0.7051,0.2949	-298.38
0.7672,0.2328	-297.40
0.8531,0.1469	-296.26
0.8618,0.1382	-296.15
0.8506,0.1494	-296.29
0.8013,0.1987	-296.92
0.7052,0.2948	-298.38
0.7609,0.2391	-297.49
0.8825,0.1175	-295.91
0.8716,0.1284	-296.04
0.8439,0.1561	-296.37
0.7336,0.2664	-297.91
0.7150,0.2850	-298.21
0.7256,0.2744	-298.04
0.8728,0.1272	-296.02
0.8665,0.1335	-296.10
0.8214,0.1786	-296.65
0.7771,0.2229	-297.26
0.8072,0.1928	-296.84
0.7358,0.2642	-297.88
0.8675,0.1325	-296.09
0.8727,0.1273	-296.02
0.7722,0.2278	-297.33
0.8251,0.1749	-296.61
0.8032,0.1968	-296.90
0.7891,0.2109	-297.09
0.8552,0.1448	-296.23
0.8497,0.1503	-296.30
0.7768,0.2232	-297.26
0.8401,0.1599	-296.42
0.7750,0.2250	-297.29
0.7650,0.2350	-297.43
0.8460,0.1540	-296.34
0.8424,0.1576	-296.39
0.8212,0.1788	-296.66
0.8231,0.1769	-296.63
0.7517,0.2483	-297.63
0.7321,0.2679	-297.93
0.8231,0.1769	-296.63
0.8250,0.1750	-296.61
0.8102,0.1898	-296.80
0.8083,0.1917	-296.83
0.7704,0.2296	-297.35
0.7111,0.2889	-298.28
0.8019,0.1981	-296.91
0.8058,0.1942	-296.86
0.8084,0.1916	-296.83
0.7788,0.2212	-297.23
0.7974,0.2026	-296.97
0.7385,0.2615	-297.83
0.8129,0.1871	-296.77
0.8385,0.1615	-296.44
0.8563,0.1437	-296.22
0.7626,0.2374	-297.47
0.7737,0.2263	-297.31
0.7461,0.2539	-297.72
0.8263,0.1737	-296.59
0.8561,0.1439	-296.22
0.8565,0.1435	-296.22
0.7540,0.2460	-297.60
0.7635,0.2365	-297.45
0.7640,0.2360	-297.45
0.8268,0.1732	-296.58
0.8256,0.1744	-296.60
0.8832,0.1168	-295.90
0.7638,0.2362	-297.45
0.8049,0.1951	-296.87
0.7474,0.2526	-297.70
0.8262,0.1738	-296.59
0.8436,0.1564	-296.37
0.8706,0.1294	-296.05
0.7681,0.2319	-297.39
0.8352,0.1648	-296.48
0.7710,0.2290	-297.35
0.7804,0.2196	-297.21
0.8383,0.1617	-296.44
0.8640,0.1360	-296.13
0.7752,0.2248	-297.28
0.8479,0.1521	-296.32
0.7945,0.2055	-297.01
0.8004,0.1996	-296.93
0.8462,0.1538	-296.34
0.8813,0.1187	-295.93
0.7906,0.2094	-297.07
0.8508,0.1492	-296.29
0.8222,0.1778	-296.64
0.7996,0.2004	-296.94
0.8422,0.1578	-296.39
0.8748,0.1252	-296.00
0.7390,0.2610	-297.83
0.8284,0.1716	-296.56
0.7988,0.2012	-296.95
0.7620,0.2380	-297.48
0.8698,0.1302	-296.06
0.8529,0.1471	-296.26
0.8008,0.1992	-296.93
0.8357,0.1643	-296.47
0.8483,0.1517	-296.32
0.7874,0.2126	-297.11
0.8764,0.1236	-295.98
0.8534,0.1466	-296.25
0.8528,0.1472	-296.26
0.8365,0.1635	-296.46
0.8653,0.1347	-296.11
0.8210,0.1790	-296.66
0.8439,0.1561	-296.37
0.8449,0.1551	-296.36
0.8389,0.1611	-296.43
0.8240,0.1760	-296.62
0.8551,0.1449	-296.23
0.8481,0.1519	-296.32
0.8411,0.1589	-296.40
0.8600,0.1400	-296.17
0.8293,0.1707	-296.55
0.7969,0.2031	-296.98
0.8600,0.1400	-296.17
0.8480,0.1520	-296.32
0.8412,0.1588	-296.40
0.8909,0.1091	-295.82
0.8249,0.1751	-296.61
0.8066,0.1934	-296.85
0.8408,0.1592	-296.41
0.8445,0.1555	-296.36
0.8301,0.1699	-296.54
0.9078,0.0922	-295.63
0.8408,0.1592	-296.41
0.7619,0.2381	-297.48
0.8258,0.1742	-296.60
0.8508,0.1492	-296.28
0.8353,0.1647	-296.48
0.8967,0.1033	-295.75
0.8376,0.1624	-296.45
0.7571,0.2429	-297.55
0.8160,0.1840	-296.72
0.8741,0.1259	-296.01
0.8462,0.1538	-296.34
0.8878,0.1122	-295.85
0.8224,0.1776	-296.64
0.7382,0.2618	-297.84
0.8567,0.1433	-296.21
0.8638,0.1362	-296.13
0.8604,0.1396	-296.17
0.8847,0.1153	-295.89
0.8296,0.1704	-296.55
0.7480,0.2520	-297.69
0.8661,0.1339	-296.10
0.8514,0.1486	-296.28
0.8612,0.1388	-296.16
0.8695,0.1305	-296.06
0.8206,0.1794	-296.67
0.7612,0.2388	-297.49
0.8689,0.1311	-296.07
0.8830,0.1170	-295.91
0.9037,0.0963	-295.68
0.8854,0.1146	-295.88
0.8435,0.1565	-296.37
0.6887,0.3113	-298.66
0.8722,0.1278	-296.03
0.8483,0.1517	-296.32
0.9177,0.0823	-295.52
0.8696,0.1304	-296.06
0.8518,0.1482	-296.27
0.6781,0.3219	-298.85
0.8764,0.1236	-295.98
0.8714,0.1286	-296.04
0.9309,0.0691	-295.39
0.8898,0.1102	-295.83
0.8471,0.1529	-296.33
0.6231,0.3769	-299.93
0.8886,0.1114	-295.84
0.8650,0.1350	-296.11
0.9341,0.0659	-295.35
0.8858,0.1142	-295.87
0.8259,0.1741	-296.60
0.6710,0.3290	-298.98
0.8708,0.1292	-296.05
0.8996,0.1004	-295.72
0.9155,0.0845	-295.55
0.8828,0.1172	-295.91
0.8008,0.1992	-296.93
0.6329,0.3671	-299.72
0.8593,0.1407	-296.18
0.9116,0.0884	-295.59
0.9272,0.0728	-295.42
0.8805,0.1195	-295.93
0.7902,0.2098	-297.07
0.6221,0.3779	-299.95
0.8484,0.1516	-296.31
0.9112,0.0888	-295.59
0.9185,0.0815	-295.52
0.8824,0.1176	-295.91
0.7906,0.2094	-297.07
0.6377,0.3623	-299.63
0.8696,0.1304	-296.06
0.9124,0.0876	-295.58
0.9088,0.0912	-295.62
0.8827,0.1173	-295.91
0.7758,0.2242	-297.28
0.6650,0.3350	-299.09
0.8997,0.1003	-295.72
0.8962,0.1038	-295.76
0.9157,0.0843	-295.55
0.8904,0.1096	-295.82
0.7978,0.2022	-296.97
0.6315,0.3685	-299.75
0.8996,0.1004	-295.72
0.8981,0.1019	-295.74
0.9257,0.0743	-295.44
0.8844,0.1156	-295.89
0.7802,0.2198	-297.21
0.5825,0.4175	-300.83
0.9060,0.0940	-295.65
0.8837,0.1163	-295.90
0.9146,0.0854	-295.56
0.8949,0.1051	-295.77
0.8152,0.1848	-296.74
0.6275,0.3725	-299.83
0.9203,0.0797	-295.50
0.8605,0.1395	-296.17
0.9114,0.0886	-295.59
0.8761,0.1239	-295.99
0.7778,0.2222	-297.25
0.6884,0.3116	-298.67
0.9204,0.0796	-295.50
0.8445,0.1555	-296.36
0.9223,0.0777	-295.48
0.8649,0.1351	-296.12
0.7287,0.2713	-297.99
0.6610,0.3390	-299.17
0.8817,0.1183	-295.92
0.8414,0.1586	-296.40
0.9257,0.0743	-295.44
0.8922,0.1078	-295.80
0.7541,0.2459	-297.60
0.7228,0.2772	-298.09
0.8876,0.1124	-295.85
0.8277,0.1723	-296.57
0.9104,0.0896	-295.60
0.8661,0.1339	-296.10
0.7659,0.2341	-297.42
0.6890,0.3110	-298.66
0.8861,0.1139	-295.87
0.8324,0.1676	-296.51
0.9035,0.0965	-295.68
0.8548,0.1452	-296.24
0.7759,0.2241	-297.27
0.7040,0.2960	-298.40
0.9041,0.0959	-295.67
0.8359,0.1641	-296.47
0.9038,0.0962	-295.67
0.8729,0.1271	-296.02
0.7751,0.2249	-297.29
0.7051,0.2949	-298.38
0.8996,0.1004	-295.72
0.8630,0.1370	-296.14
0.9076,0.0924	-295.63
0.8401,0.1599	-296.42
0.7938,0.2062	-297.02
0.7377,0.2623	-297.85
0.9063,0.0937	-295.65
0.8746,0.1254	-296.00
0.8994,0.1006	-295.72
0.8298,0.1702	-296.55
0.7925,0.2075	-297.04
0.7383,0.2617	-297.84
0.9048,0.0952	-295.66
0.8815,0.1185	-295.92
0.9039,0.0961	-295.67
0.8023,0.1977	-296.91
0.8096,0.1904	-296.81
0.7164,0.2836	-298.19
0.9139,0.0861	-295.56
0.9018,0.0982	-295.70
0.9037,0.0963	-295.68
0.7672,0.2328	-297.40
0.7848,0.2152	-297.15
0.7332,0.2668	-297.92
0.9281,0.0719	-295.41
0.8967,0.1033	-295.75
0.9084,0.0916	-295.62
0.7794,0.2206	-297.22
0.7942,0.2058	-297.02
0.7348,0.2652	-297.89
0.9276,0.0724	-295.42
0.8805,0.1195	-295.93
0.8981,0.1019	-295.74
0.7543,0.2457	-297.59
0.8209,0.1791	-296.66
0.7223,0.2777	-298.09
0.9287,0.0713	-295.41
0.9065,0.0935	-295.64
0.8836,0.1164	-295.90
0.8197,0.1803	-296.68
0.8286,0.1714	-296.56
0.7158,0.2842	-298.20
0.9349,0.0651	-295.34
0.9020,0.0980	-295.69
0.8431,0.1569	-296.38
0.8539,0.1461	-296.25
0.8027,0.1973	-296.90
0.6667,0.3333	-299.06
0.9401,0.0599	-295.29
0.8816,0.1184	-295.92
0.8067,0.1933	-296.85
0.8500,0.1500	-296.30
0.7888,0.2112	-297.09
0.6850,0.3150	-298.73
0.9486,0.0514	-295.21
0.8850,0.1150	-295.88
0.7915,0.2085	-297.05
0.8497,0.1503	-296.30
0.7753,0.2247	-297.28
0.6770,0.3230	-298.87
0.9539,0.0461	-295.15
0.9063,0.0937	-295.65
0.7847,0.2153	-297.15
0.8331,0.1669	-296.50
0.7706,0.2294	-297.35
0.6691,0.3309	-299.02
0.9577,0.0423	-295.11
0.8980,0.1020	-295.74
0.8207,0.1793	-296.66
0.8482,0.1518	-296.32
0.7627,0.2373	-297.47
0.7283,0.2717	-298.00
0.9614,0.0386	-295.08
0.8955,0.1045	-295.77
0.8398,0.1602	-296.42
0.8299,0.1701	-296.54
0.7504,0.2496	-297.65
0.7174,0.2826	-298.17
0.9610,0.0390	-295.08
0.8999,0.1001	-295.72
0.8462,0.1538	-296.34
0.8090,0.1910	-296.82
0.7913,0.2087	-297.06
0.7985,0.2015	-296.96
0.9581,0.0419	-295.11
0.9098,0.0902	-295.61
0.8340,0.1660	-296.49
0.8495,0.1505	-296.30
0.8494,0.1506	-296.30
0.8165,0.1835	-296.72
0.9500,0.0500	-295.19
0.9194,0.0806	-295.51
0.8444,0.1556	-296.36
0.8563,0.1437	-296.22
0.8367,0.1633	-296.46
0.8076,0.1924	-296.84
0.9550,0.0450	-295.14
0.9229,0.0771	-295.47
0.8334,0.1666	-296.50
0.8600,0.1400	-296.17
0.8359,0.1641	-296.47
0.7657,0.2343	-297.42
0.9616,0.0384	-295.08
0.9240,0.0760	-295.46
0.8217,0.1783	-296.65
0.8660,0.1340	-296.10
0.8333,0.1667	-296.50
0.7284,0.2716	-297.99
0.9616,0.0384	-295.08
0.9252,0.0748	-295.45
0.8372,0.1628	-296.45
0.8812,0.1188	-295.93
0.8473,0.1527	-296.33
0.7255,0.2745	-298.04
0.9673,0.0327	-295.02
0.9088,0.0912	-295.62
0.8659,0.1341	-296.10
0.8725,0.1275	-296.03
0.8377,0.1623	-296.45
0.7139,0.2861	-298.23
0.9759,0.0241	-294.94
0.9282,0.0718	-295.41
0.8535,0.1465	-296.25
0.8562,0.1438	-296.22
0.8283,0.1717	-296.57
0.6826,0.3174	-298.77
0.9779,0.0221	-294.92
0.9248,0.0752	-295.45
0.8363,0.1637	-296.46
0.8745,0.1255	-296.00
0.8255,0.1745	-296.60
0.7215,0.2785	-298.11
0.9717,0.0283	-294.98
0.9333,0.0667	-295.36
0.8575,0.1425	-296.20
0.8908,0.1092	-295.82
0.8402,0.1598	-296.41
0.7672,0.2328	-297.40
0.9742,0.0258	-294.95
0.9289,0.0711	-295.41
0.8467,0.1533	-296.34
0.8896,0.1104	-295.83
0.8238,0.1762	-296.62
0.7573,0.2427	-297.55
0.9803,0.0197	-294.90
0.9178,0.0822	-295.52
0.8222,0.1778	-296.64
0.9028,0.0972	-295.68
0.8080,0.1920	-296.83
0.7911,0.2089	-297.06
0.9804,0.0196	-294.90
0.9206,0.0794	-295.49
0.8577,0.1423	-296.20
0.9166,0.0834	-295.54
0.8196,0.1804	-296.68
0.7865,0.2135	-297.12
0.9804,0.0196	-294.90
0.9264,0.0736	-295.43
0.8410,0.1590	-296.40
0.9354,0.0646	-295.34
0.7929,0.2071	-297.03
0.8116,0.1884	-296.78
0.9787,0.0213	-294.91
0.9159,0.0841	-295.54
0.8087,0.1913	-296.82
0.9365,0.0635	-295.33
0.8203,0.1797	-296.67
0.7801,0.2199	-297.21
0.9829,0.0171	-294.87
0.9128,0.0872	-295.58
0.8227,0.1773	-296.64
0.9442,0.0558	-295.25
0.8100,0.1900	-296.80
0.7791,0.2209	-297.23
0.9819,0.0181	-294.88
0.9285,0.0715	-295.41
0.8183,0.1817	-296.69
0.9414,0.0586	-295.28
0.8315,0.1685	-296.52
0.7371,0.2629	-297.86
0.9777,0.0223	-294.92
0.9302,0.0698	-295.39
0.8288,0.1712	-296.56
0.9324,0.0676	-295.37
0.8333,0.1667	-296.50
0.7977,0.2023	-296.97
0.9802,0.0198	-294.90
0.9283,0.0717	-295.41
0.8342,0.1658	-296.49
0.9318,0.0682	-295.38
0.8563,0.1437	-296.22
0.8127,0.1873	-296.77
0.9796,0.0204	-294.90
0.9350,0.0650	-295.34
0.8397,0.1603	-296.42
0.9258,0.0742	-295.44
0.8486,0.1514	-296.31
0.8407,0.1593	-296.41
0.9788,0.0212	-294.91
0.9239,0.0761	-295.46
0.8423,0.1577	-296.39
0.9222,0.0778	-295.48
0.8702,0.1298	-296.05
0.8500,0.1500	-296.30
0.9813,0.0187	-294.89
0.9205,0.0795	-295.49
0.8110,0.1890	-296.79
0.9372,0.0628	-295.32
0.8740,0.1260	-296.01
0.8526,0.1474	-296.26
0.9823,0.0177	-294.88
0.9252,0.0748	-295.44
0.7993,0.2007	-296.95
0.9356,0.0644	-295.34
0.8785,0.1215	-295.96
0.8728,0.1272	-296.02
0.9842,0.0158	-294.86
0.9387,0.0613	-295.31
0.8300,0.1700	-296.54
0.9156,0.0844	-295.55
0.8937,0.1063	-295.79
0.8354,0.1646	-296.48
0.9872,0.0128	-294.83
0.9224,0.0776	-295.47
0.8222,0.1778	-296.64
0.9162,0.0838	-295.54
0.8910,0.1090	-295.82
0.8343,0.1657	-296.49
0.9891,0.0109	-294.81
0.9424,0.0576	-295.27
0.8535,0.1465	-296.25
0.9238,0.0762	-295.46
0.9212,0.0788	-295.49
0.8623,0.1377	-296.15
0.9908,0.0092	-294.80
0.9380,0.0620	-295.31
0.8717,0.1283	-296.04
0.9267,0.0733	-295.43
0.9234,0.0766	-295.46
0.8674,0.1326	-296.09
0.9906,0.0094	-294.80
0.9381,0.0619	-295.31
0.8911,0.1089	-295.81
0.9362,0.0638	-295.33
0.9404,0.0596	-295.29
0.8708,0.1292	-296.05
0.9921,0.0079	-294.79
0.9375,0.0625	-295.32
0.8784,0.1216	-295.96
0.9201,0.0799	-295.50
0.9424,0.0576	-295.27
0.8519,0.1481	-296.27
0.9917,0.0083	-294.79
0.9165,0.0835	-295.54
0.8718,0.1282	-296.03
0.9056,0.0944	-295.65
0.9297,0.0703	-295.40
0.8572,0.1428	-296.21
0.9913,0.0087	-294.79
0.9077,0.0923	-295.63
0.8765,0.1235	-295.98
0.9201,0.0799	-295.50
0.9255,0.0745	-295.44
0.8244,0.1756	-296.61
0.9924,0.0076	-294.78
0.9156,0.0844	-295.55
0.8785,0.1215	-295.96
0.9197,0.0803	-295.50
0.9336,0.0664	-295.36
0.8057,0.1943	-296.86
0.9920,0.0080	-294.79
0.9185,0.0815	-295.52
0.8697,0.1303	-296.06
0.9046,0.0954	-295.67
0.9181,0.0819	-295.52
0.8426,0.1574	-296.39
0.9916,0.0084	-294.79
0.9154,0.0846	-295.55
0.8802,0.1198	-295.94
0.8755,0.1245	-295.99
0.9188,0.0812	-295.51
0.8613,0.1387	-296.16
0.9913,0.0087	-294.79
0.9160,0.0840	-295.54
0.8692,0.1308	-296.06
0.8900,0.1100	-295.83
0.9288,0.0712	-295.41
0.8522,0.1478	-296.27
0.9915,0.0085	-294.79
0.8959,0.1041	-295.76
0.8481,0.1519	-296.32
0.9224,0.0776	-295.47
0.9230,0.0770	-295.47
0.8592,0.1408	-296.18
0.9933,0.0067	-294.78
0.8953,0.1047	-295.77
0.8315,0.1685	-296.52
0.9368,0.0632	-295.32
0.9280,0.0720	-295.42
0.8732,0.1268	-296.02
0.9915,0.0085	-294.79
0.8840,0.1160	-295.89
0.8200,0.1800	-296.67
0.9362,0.0638	-295.33
0.9105,0.0895	-295.60
0.9013,0.0987	-295.70
0.9906,0.0094	-294.80
0.8322,0.1678	-296.52
0.8374,0.1626	-296.45
0.9311,0.0689	-295.38
0.9266,0.0734	-295.43
0.9114,0.0886	-295.59
0.9904,0.0096	-294.80
0.8647,0.1353	-296.12
0.8274,0.1726	-296.58
0.9269,0.0731	-295.43
0.9227,0.0773	-295.47
0.9293,0.0707	-295.40
0.9934,0.0066	-294.78
0.8783,0.1217	-295.96
0.8269,0.1731	-296.58
0.9157,0.0843	-295.55
0.9235,0.0765	-295.46
0.9258,0.0742	-295.44
0.9936,0.0064	-294.77
0.8724,0.1276	-296.03
0.8586,0.1414	-296.19
0.9181,0.0819	-295.52
0.9163,0.0837	-295.54
0.9316,0.0684	-295.38
0.9942,0.0058	-294.77
0.8926,0.1074	-295.80
0.8811,0.1189	-295.93
0.9187,0.0813	-295.51
0.9336,0.0664	-295.36
0.9401,0.0599	-295.29
0.9943,0.0057	-294.77
0.8790,0.1210	-295.95
0.9100,0.0900	-295.61
0.9134,0.0866	-295.57
0.9292,0.0708	-295.40
0.9244,0.0756	-295.45
0.9956,0.0044	-294.75
0.8673,0.1327	-296.09
0.9061,0.0939	-295.65
0.9298,0.0702	-295.40
0.9326,0.0674	-295.37
0.9302,0.0698	-295.39
0.9951,0.0049	-294.76
0.8835,0.1165	-295.90
0.8959,0.1041	-295.76
0.9401,0.0599	-295.29
0.9386,0.0614	-295.31
0.9478,0.0522	-295.21
0.9952,0.0048	-294.76
0.8718,0.1282	-296.03
0.8676,0.1324	-296.08
0.9403,0.0597	-295.29
0.9360,0.0640	-295.33
0.9543,0.0457	-295.15
0.9950,0.0050	-294.76
0.8794,0.1206	-295.95
0.8810,0.1190	-295.93
0.9556,0.0444	-295.14
0.9415,0.0585	-295.28
0.9579,0.0421	-295.11
0.9955,0.0045	-294.76
0.8480,0.1520	-296.32
0.8901,0.1099	-295.83
0.9591,0.0409	-295.10
0.9296,0.0704	-295.40
0.9498,0.0502	-295.19
0.9954,0.0046	-294.76
0.8523,0.1477	-296.27
0.8660,0.1340	-296.10
0.9620,0.0380	-295.07
0.9181,0.0819	-295.52
0.9455,0.0545	-295.24
0.9959,0.0041	-294.75
0.8532,0.1468	-296.26
0.8540,0.1460	-296.25
0.9556,0.0444	-295.14
0.9161,0.0839	-295.54
0.9425,0.0575	-295.27
0.9960,0.0040	-294.75
0.8570,0.1430	-296.21
0.8577,0.1423	-296.20
0.9654,0.0346	-295.04
0.9105,0.0895	-295.60
0.9458,0.0542	-295.23
0.9955,0.0045	-294.76
0.8239,0.1761	-296.62
0.8806,0.1194	-295.93
0.9675,0.0325	-295.02
0.9235,0.0765	-295.46
0.9524,0.0476	-295.17
0.9967,0.0033	-294.74
0.8289,0.1711	-296.56
0.9016,0.0984	-295.70
0.9708,0.0292	-294.99
0.9223,0.0777	-295.48
0.9494,0.0506	-295.20
0.9968,0.0032	-294.74
0.8470,0.1530	-296.33
0.8939,0.1061	-295.78
0.9659,0.0341	-295.03
0.9261,0.0739	-295.44
0.9578,0.0422	-295.11
0.9968,0.0032	-294.74
0.8153,0.1847	-296.73
0.8834,0.1166	-295.90
0.9663,0.0337	-295.03
0.9227,0.0773	-295.47
0.9591,0.0409	-295.10
0.9972,0.0028	-294.74
0.7991,0.2009	-296.95
0.8869,0.1131	-295.86
0.9707,0.0293	-294.99
0.9288,0.0712	-295.41
0.9468,0.0532	-295.22
0.9968,0.0032	-294.74
0.7634,0.2366	-297.46
0.9015,0.0985	-295.70
0.9668,0.0332	-295.03
0.9282,0.0718	-295.41
0.9485,0.0515	-295.21
0.9965,0.0035	-294.75
0.7966,0.2034	-296.98
0.9132,0.0868	-295.57
0.9627,0.0373	-295.07
0.9336,0.0664	-295.36
0.9457,0.0543	-295.23
0.9967,0.0033	-294.74
0.7618,0.2382	-297.48
0.9185,0.0815	-295.52
0.9626,0.0374	-295.07
0.9296,0.0704	-295.40
0.9559,0.0441	-295.13
0.9963,0.0037	-294.75
0.7792,0.2208	-297.23
0.9197,0.0803	-295.50
0.9521,0.0479	-295.17
0.9300,0.0700	-295.39
0.9596,0.0404	-295.10
0.9971,0.0029	-294.74
0.7735,0.2265	-297.31
0.9193,0.0807	-295.51
0.9625,0.0375	-295.07
0.9259,0.0741	-295.44
0.9643,0.0357	-295.05
0.9969,0.0031	-294.74
0.7988,0.2012	-296.95
0.9122,0.0878	-295.58
0.9612,0.0388	-295.08
0.9386,0.0614	-295.31
0.9714,0.0286	-294.98
0.9957,0.0043	-294.75
0.7731,0.2269	-297.31
0.9220,0.0780	-295.48
0.9643,0.0357	-295.05
0.9293,0.0707	-295.40
0.9734,0.0266	-294.96
0.9957,0.0043	-294.75
0.8143,0.1857	-296.75
0.9201,0.0799	-295.50
0.9464,0.0536	-295.23
0.9135,0.0865	-295.57
0.9775,0.0225	-294.92
0.9963,0.0037	-294.75
0.8424,0.1576	-296.39
0.9352,0.0648	-295.34
0.9280,0.0720	-295.42
0.9132,0.0868	-295.57
0.9783,0.0217	-294.92
0.9954,0.0046	-294.76
0.8457,0.1543	-296.35
0.9345,0.0655	-295.35
0.9385,0.0615	-295.31
0.9099,0.0901	-295.61
0.9777,0.0223	-294.92
0.9950,0.0050	-294.76
0.8340,0.1660	-296.49
0.9357,0.0643	-295.34
0.9584,0.0416	-295.11
0.9045,0.0955	-295.67
0.9768,0.0232	-294.93
0.9946,0.0054	-294.76
0.8282,0.1718	-296.57
0.9448,0.0552	-295.24
0.9600,0.0400	-295.09
0.8958,0.1042	-295.76
0.9788,0.0212	-294.91
0.9951,0.0049	-294.76
0.8348,0.1652	-296.48
0.9485,0.0515	-295.21
0.9559,0.0441	-295.13
0.9002,0.0998	-295.71
0.9782,0.0218	-294.92
0.9945,0.0055	-294.76
0.8529,0.1471	-296.26
0.9577,0.0423	-295.11
0.9618,0.0382	-295.08
0.9019,0.0981	-295.69
0.9823,0.0177	-294.88
0.9944,0.0056	-294.77
0.8020,0.1980	-296.91
0.9521,0.0479	-295.17
0.9671,0.0329	-295.02
0.9165,0.0835	-295.54
0.9829,0.0171	-294.87
0.9939,0.0061	-294.77
0.8029,0.1971	-296.90
0.9570,0.0430	-295.12
0.9731,0.0269	-294.97
0.9389,0.0611	-295.30
0.9842,0.0158	-294.86
0.9937,0.0063	-294.77
0.7960,0.2040	-296.99
0.9494,0.0506	-295.20
0.9781,0.0219	-294.92
0.9421,0.0579	-295.27
0.9830,0.0170	-294.87
0.9938,0.0062	-294.77
0.7827,0.2173	-297.18
0.9343,0.0657	-295.35
0.9787,0.0213	-294.91
0.9479,0.0521	-295.21
0.9844,0.0156	-294.86
0.9914,0.0086	-294.79
0.7754,0.2246	-297.28
0.9396,0.0604	-295.30
0.9760,0.0240	-294.94
0.9430,0.0570	-295.26
0.9850,0.0150	-294.85
0.9926,0.0074	-294.78
0.7907,0.2093	-297.07
0.9314,0.0686	-295.38
0.9834,0.0166	-294.87
0.9335,0.0665	-295.36
0.9823,0.0177	-294.88
0.9921,0.0079	-294.79
0.7942,0.2058	-297.02
0.9309,0.0691	-295.39
0.9775,0.0225	-294.92
0.9407,0.0593	-295.28
0.9829,0.0171	-294.87
0.9928,0.0072	-294.78
0.8032,0.1968	-296.90
0.9347,0.0653	-295.35
0.9767,0.0233	-294.93
0.9406,0.0594	-295.29
0.9854,0.0146	-294.85
0.9927,0.0073	-294.78
0.8079,0.1921	-296.83
0.9196,0.0804	-295.50
0.9774,0.0226	-294.92
0.9331,0.0669	-295.36
0.9853,0.0147	-294.85
0.9943,0.0057	-294.77
0.7458,0.2542	-297.72
0.9225,0.0775	-295.47
0.9799,0.0201	-294.90
0.9000,0.1000	-295.72
0.9838,0.0162	-294.86
0.9951,0.0049	-294.76
0.7962,0.2038	-296.99
0.9226,0.0774	-295.47
0.9782,0.0218	-294.92
0.9006,0.0994	-295.71
0.9808,0.0192	-294.89
0.9945,0.0055	-294.77
0.8397,0.1603	-296.42
0.9299,0.0701	-295.40
0.9812,0.0188	-294.89
0.9193,0.0807	-295.51
0.9846,0.0154	-294.86
0.9956,0.0044	-294.75
0.8560,0.1440	-296.22
0.9172,0.0828	-295.53
0.9825,0.0175	-294.88
0.8916,0.1084	-295.81
0.9855,0.0145	-294.85
0.9951,0.0049	-294.76
0.8721,0.1279	-296.03
0.9287,0.0713	-295.41
0.9853,0.0147	-294.85
0.9090,0.0910	-295.62
0.9826,0.0174	-294.88
0.9934,0.0066	-294.77
0.8804,0.1196	-295.94
0.9134,0.0866	-295.57
0.9868,0.0132	-294.84
0.8998,0.1002	-295.72
0.9799,0.0201	-294.90
0.9937,0.0063	-294.77
0.8923,0.1077	-295.80
0.9319,0.0681	-295.37
0.9870,0.0130	-294.83
0.9029,0.0971	-295.68
0.9790,0.0210	-294.91
0.9928,0.0072	-294.78
0.9169,0.0831	-295.53
0.9445,0.0555	-295.25
0.9852,0.0148	-294.85
0.9061,0.0939	-295.65
0.9711,0.0289	-294.99
0.9937,0.0063	-294.77
0.9220,0.0780	-295.48
0.9498,0.0502	-295.19
0.9888,0.0112	-294.82
0.9196,0.0804	-295.50
0.9699,0.0301	-295.00
0.9937,0.0063	-294.77
0.9095,0.0905	-295.61
0.9475,0.0525	-295.22
0.9870,0.0130	-294.83
0.9180,0.0820	-295.52
0.9688,0.0312	-295.01
0.9940,0.0060	-294.77
0.8899,0.1101	-295.83
0.9465,0.0535	-295.23
0.9859,0.0141	-294.84
0.9286,0.0714	-295.41
0.9631,0.0369	-295.06
0.9927,0.0073	-294.78
0.8925,0.1075	-295.80
0.9470,0.0530	-295.22
0.9824,0.0176	-294.88
