#isoforms=['ENSG00000211445.SE.0.A.up_ENSG00000211445.SE.0.A.SE1_ENSG00000211445.SE.0.A.dn','ENSG00000211445.SE.0.B.up_ENSG00000211445.SE.0.B.dn']	exon_lens=('ENSG00000211445.SE.0.A.up',136),('ENSG00000211445.SE.0.A.SE1',426),('ENSG00000211445.SE.0.A.dn',154),('ENSG00000211445.SE.0.B.up',179),('ENSG00000211445.SE.0.B.dn',154)	iters=5000	burn_in=500	lag=10	percent_accept=92.99	proposal_type=drift	counts=(0,0):349,(0,1):108,(1,0):9,(1,1):361	assigned_counts=0:20,1:458	chrom=chr5	strand=+	mRNA_starts=151020606,151020563	mRNA_ends=151025493,151025493
sampled_psi	log_score
0.0137,0.9863	-2776.17
0.0188,0.9812	-2829.94
0.0080,0.9920	-2789.83
0.0147,0.9853	-2780.73
0.0115,0.9885	-2797.79
0.0064,0.9936	-2775.87
0.0105,0.9895	-2784.44
0.0152,0.9848	-2776.76
0.0111,0.9889	-2784.42
0.0136,0.9864	-2788.97
0.0116,0.9884	-2788.88
0.0067,0.9933	-2770.71
0.0105,0.9895	-2802.63
0.0124,0.9876	-2780.12
0.0145,0.9855	-2805.99
0.0142,0.9858	-2797.54
0.0135,0.9865	-2780.39
0.0082,0.9918	-2784.92
0.0104,0.9896	-2779.89
0.0144,0.9856	-2806.01
0.0143,0.9857	-2827.17
0.0161,0.9839	-2810.05
0.0123,0.9877	-2793.27
0.0099,0.9901	-2789.10
0.0110,0.9890	-2793.42
0.0155,0.9845	-2793.49
0.0162,0.9838	-2801.83
0.0175,0.9825	-2802.00
0.0116,0.9884	-2775.54
0.0099,0.9901	-2775.29
0.0106,0.9894	-2784.44
0.0119,0.9881	-2784.46
0.0195,0.9805	-2810.25
0.0175,0.9825	-2802.01
0.0121,0.9879	-2784.48
0.0111,0.9889	-2802.38
0.0134,0.9866	-2793.25
0.0129,0.9871	-2793.25
0.0159,0.9841	-2789.44
0.0165,0.9835	-2789.59
0.0105,0.9895	-2793.52
0.0119,0.9881	-2780.04
0.0135,0.9865	-2814.71
0.0169,0.9831	-2797.84
0.0174,0.9826	-2797.96
0.0163,0.9837	-2797.74
0.0092,0.9908	-2798.67
0.0112,0.9888	-2775.46
0.0116,0.9884	-2784.44
0.0194,0.9806	-2786.70
0.0158,0.9842	-2789.41
0.0118,0.9882	-2788.88
0.0098,0.9902	-2798.35
0.0102,0.9898	-2775.31
0.0141,0.9859	-2780.54
0.0235,0.9765	-2807.47
0.0140,0.9860	-2814.56
0.0123,0.9877	-2788.88
0.0098,0.9902	-2793.74
0.0099,0.9901	-2779.89
0.0132,0.9868	-2801.88
0.0204,0.9796	-2802.68
0.0147,0.9853	-2793.36
0.0142,0.9858	-2797.55
0.0091,0.9909	-2784.64
0.0109,0.9891	-2797.94
0.0170,0.9830	-2801.92
0.0173,0.9827	-2789.84
0.0199,0.9801	-2810.32
0.0160,0.9840	-2810.05
0.0090,0.9910	-2789.37
0.0115,0.9885	-2802.26
0.0212,0.9788	-2791.42
0.0134,0.9866	-2793.25
0.0195,0.9805	-2825.93
0.0157,0.9843	-2797.66
0.0106,0.9894	-2798.05
0.0115,0.9885	-2779.98
0.0178,0.9822	-2814.08
0.0166,0.9834	-2777.36
0.0169,0.9831	-2793.78
0.0149,0.9851	-2789.19
0.0128,0.9872	-2801.93
0.0105,0.9895	-2784.44
0.0184,0.9816	-2794.23
0.0154,0.9846	-2785.16
0.0173,0.9827	-2797.93
0.0118,0.9882	-2788.88
0.0109,0.9891	-2784.43
0.0091,0.9909	-2789.33
0.0153,0.9847	-2785.13
0.0151,0.9849	-2814.30
0.0176,0.9824	-2810.06
0.0123,0.9877	-2797.64
0.0115,0.9885	-2775.53
0.0096,0.9904	-2798.44
0.0158,0.9842	-2801.81
0.0174,0.9826	-2797.94
0.0140,0.9860	-2784.78
0.0132,0.9868	-2784.62
0.0114,0.9886	-2797.81
0.0117,0.9883	-2797.75
0.0118,0.9882	-2780.02
0.0186,0.9814	-2798.23
0.0167,0.9833	-2797.81
0.0128,0.9872	-2797.59
0.0092,0.9908	-2789.31
0.0100,0.9900	-2789.07
0.0131,0.9869	-2797.57
0.0200,0.9800	-2810.35
0.0175,0.9825	-2793.93
0.0121,0.9879	-2802.07
0.0101,0.9899	-2798.23
0.0086,0.9914	-2780.03
0.0119,0.9881	-2806.57
0.0225,0.9775	-2825.99
0.0137,0.9863	-2797.54
0.0127,0.9873	-2797.60
0.0085,0.9915	-2780.06
0.0068,0.9932	-2770.69
0.0146,0.9854	-2797.56
0.0214,0.9786	-2810.61
0.0109,0.9891	-2784.43
0.0107,0.9893	-2784.43
0.0071,0.9929	-2790.38
0.0069,0.9931	-2795.54
0.0181,0.9819	-2810.09
0.0203,0.9797	-2806.53
0.0095,0.9905	-2779.91
0.0115,0.9885	-2779.99
0.0084,0.9916	-2784.83
0.0084,0.9916	-2784.84
0.0238,0.9762	-2818.71
0.0155,0.9845	-2801.78
0.0101,0.9899	-2793.65
0.0113,0.9887	-2815.76
0.0077,0.9923	-2785.11
0.0075,0.9925	-2780.34
0.0225,0.9775	-2814.68
0.0172,0.9828	-2801.95
0.0122,0.9878	-2780.09
0.0128,0.9872	-2780.22
0.0095,0.9905	-2793.87
0.0082,0.9918	-2784.92
0.0197,0.9803	-2806.38
0.0165,0.9835	-2789.61
0.0117,0.9883	-2780.01
0.0131,0.9869	-2797.57
0.0085,0.9915	-2780.05
0.0090,0.9910	-2784.68
0.0172,0.9828	-2797.90
0.0164,0.9836	-2793.67
0.0113,0.9887	-2779.96
0.0197,0.9803	-2814.19
0.0095,0.9905	-2793.85
0.0097,0.9903	-2784.53
0.0181,0.9819	-2810.09
0.0187,0.9813	-2806.19
0.0087,0.9913	-2784.76
0.0176,0.9824	-2806.04
0.0074,0.9926	-2775.48
0.0098,0.9902	-2793.73
0.0196,0.9804	-2814.19
0.0201,0.9799	-2794.80
0.0081,0.9919	-2780.16
0.0155,0.9845	-2789.32
0.0095,0.9905	-2779.91
0.0101,0.9899	-2784.47
0.0191,0.9809	-2806.26
0.0186,0.9814	-2814.10
0.0078,0.9922	-2775.39
0.0168,0.9832	-2810.04
0.0097,0.9903	-2789.15
0.0115,0.9885	-2797.80
0.0211,0.9789	-2795.23
0.0135,0.9865	-2810.44
0.0108,0.9892	-2784.43
0.0169,0.9831	-2801.92
0.0084,0.9916	-2799.15
0.0117,0.9883	-2780.00
0.0184,0.9816	-2778.33
0.0105,0.9895	-2788.99
0.0127,0.9873	-2780.19
0.0141,0.9859	-2784.80
0.0119,0.9881	-2793.29
0.0102,0.9898	-2807.33
0.0213,0.9787	-2799.11
0.0104,0.9896	-2789.01
0.0128,0.9872	-2801.94
0.0152,0.9848	-2793.44
0.0134,0.9866	-2797.55
0.0140,0.9860	-2797.54
0.0195,0.9805	-2814.17
0.0131,0.9869	-2788.92
0.0106,0.9894	-2779.90
0.0168,0.9832	-2801.89
0.0122,0.9878	-2793.27
0.0153,0.9847	-2801.78
0.0185,0.9815	-2802.19
0.0118,0.9882	-2802.17
0.0112,0.9888	-2788.90
0.0156,0.9844	-2785.20
0.0133,0.9867	-2780.34
0.0156,0.9844	-2789.35
0.0171,0.9829	-2789.80
0.0160,0.9840	-2789.47
0.0096,0.9904	-2784.55
0.0189,0.9811	-2810.17
0.0170,0.9830	-2805.98
0.0148,0.9852	-2780.78
0.0202,0.9798	-2806.50
0.0124,0.9876	-2780.13
0.0095,0.9905	-2779.91
0.0204,0.9796	-2791.07
0.0181,0.9819	-2810.10
0.0133,0.9867	-2784.64
0.0228,0.9772	-2803.48
0.0137,0.9863	-2793.27
0.0095,0.9905	-2775.27
0.0195,0.9805	-2818.09
0.0187,0.9813	-2786.37
0.0168,0.9832	-2801.90
0.0249,0.9751	-2811.65
0.0123,0.9877	-2771.33
0.0111,0.9889	-2797.90
0.0221,0.9779	-2807.01
0.0165,0.9835	-2797.78
0.0182,0.9818	-2798.13
0.0191,0.9809	-2818.08
0.0150,0.9850	-2797.59
0.0111,0.9889	-2779.94
0.0208,0.9792	-2802.79
0.0154,0.9846	-2780.99
0.0186,0.9814	-2802.22
0.0193,0.9807	-2794.51
0.0133,0.9867	-2797.56
0.0106,0.9894	-2784.44
0.0194,0.9806	-2798.48
0.0179,0.9821	-2798.07
0.0161,0.9839	-2801.83
0.0162,0.9838	-2789.53
0.0125,0.9875	-2797.63
0.0137,0.9863	-2788.99
0.0188,0.9812	-2798.30
0.0169,0.9831	-2810.04
0.0206,0.9794	-2814.31
0.0168,0.9832	-2810.04
0.0161,0.9839	-2789.50
0.0102,0.9898	-2798.21
0.0208,0.9792	-2825.90
0.0200,0.9800	-2806.46
0.0215,0.9785	-2803.03
0.0198,0.9802	-2802.51
0.0160,0.9840	-2793.57
0.0115,0.9885	-2784.43
0.0163,0.9837	-2810.04
0.0218,0.9782	-2803.10
0.0181,0.9819	-2790.11
0.0142,0.9858	-2784.82
0.0151,0.9849	-2785.07
0.0115,0.9885	-2793.34
0.0134,0.9866	-2788.95
0.0207,0.9793	-2802.75
0.0149,0.9851	-2805.96
0.0183,0.9817	-2806.13
0.0128,0.9872	-2797.59
0.0130,0.9870	-2793.25
0.0107,0.9893	-2775.38
0.0173,0.9827	-2801.96
0.0145,0.9855	-2789.12
0.0147,0.9853	-2810.19
0.0118,0.9882	-2793.31
0.0141,0.9859	-2793.29
0.0117,0.9883	-2802.18
0.0183,0.9817	-2802.14
0.0136,0.9864	-2810.39
0.0132,0.9868	-2793.25
0.0146,0.9854	-2801.77
0.0144,0.9856	-2797.55
0.0133,0.9867	-2797.56
0.0169,0.9831	-2818.16
0.0119,0.9881	-2784.46
0.0158,0.9842	-2805.93
0.0136,0.9864	-2793.26
0.0142,0.9858	-2784.83
0.0119,0.9881	-2802.13
0.0187,0.9813	-2798.26
0.0119,0.9881	-2797.72
0.0168,0.9832	-2793.77
0.0164,0.9836	-2818.23
0.0139,0.9861	-2789.02
0.0128,0.9872	-2793.25
0.0156,0.9844	-2781.07
0.0113,0.9887	-2779.95
0.0163,0.9837	-2793.63
0.0161,0.9839	-2793.59
0.0140,0.9860	-2789.03
0.0124,0.9876	-2793.26
0.0147,0.9853	-2793.36
0.0114,0.9886	-2788.90
0.0148,0.9852	-2797.57
0.0146,0.9854	-2780.72
0.0135,0.9865	-2797.55
0.0122,0.9878	-2793.27
0.0126,0.9874	-2788.89
0.0114,0.9886	-2784.43
0.0184,0.9816	-2814.10
0.0199,0.9801	-2794.73
0.0118,0.9882	-2802.16
0.0125,0.9875	-2788.89
0.0111,0.9889	-2775.45
0.0136,0.9864	-2784.69
0.0161,0.9839	-2830.62
0.0157,0.9843	-2776.96
0.0130,0.9870	-2784.59
0.0122,0.9878	-2788.88
0.0118,0.9882	-2780.03
0.0114,0.9886	-2793.36
0.0172,0.9828	-2785.77
0.0128,0.9872	-2788.90
0.0134,0.9866	-2793.25
0.0120,0.9880	-2780.06
0.0111,0.9889	-2797.90
0.0125,0.9875	-2780.14
0.0187,0.9813	-2798.27
0.0132,0.9868	-2784.61
0.0160,0.9840	-2785.32
0.0118,0.9882	-2802.15
0.0134,0.9866	-2780.36
0.0125,0.9875	-2788.88
0.0187,0.9813	-2786.40
0.0130,0.9870	-2797.58
0.0130,0.9870	-2801.91
0.0103,0.9897	-2770.76
0.0118,0.9882	-2788.88
0.0149,0.9851	-2801.77
0.0178,0.9822	-2806.06
0.0126,0.9874	-2771.44
0.0130,0.9870	-2775.93
0.0078,0.9922	-2785.10
0.0107,0.9893	-2798.00
0.0150,0.9850	-2789.21
0.0123,0.9877	-2784.50
0.0130,0.9870	-2784.59
0.0104,0.9896	-2775.33
0.0071,0.9929	-2780.50
0.0119,0.9881	-2788.88
0.0114,0.9886	-2784.43
0.0165,0.9835	-2801.86
0.0143,0.9857	-2776.39
0.0112,0.9888	-2793.39
0.0069,0.9931	-2770.67
0.0104,0.9896	-2784.45
0.0105,0.9895	-2784.44
0.0157,0.9843	-2785.25
0.0109,0.9891	-2775.41
0.0093,0.9907	-2775.26
0.0063,0.9937	-2780.96
0.0093,0.9907	-2784.59
0.0090,0.9910	-2789.37
0.0191,0.9809	-2802.32
0.0129,0.9871	-2788.91
0.0095,0.9905	-2779.92
0.0083,0.9917	-2770.53
0.0113,0.9887	-2779.96
0.0103,0.9897	-2784.46
0.0181,0.9819	-2802.10
0.0167,0.9833	-2805.96
0.0111,0.9889	-2779.94
0.0080,0.9920	-2780.18
0.0119,0.9881	-2775.63
0.0103,0.9897	-2798.14
0.0185,0.9815	-2802.19
0.0141,0.9859	-2797.54
0.0110,0.9890	-2784.42
0.0062,0.9938	-2775.97
0.0129,0.9871	-2801.91
0.0105,0.9895	-2793.53
0.0198,0.9802	-2794.69
0.0140,0.9860	-2789.03
0.0114,0.9886	-2793.35
0.0066,0.9934	-2785.80
0.0133,0.9867	-2793.25
0.0127,0.9873	-2793.25
0.0198,0.9802	-2802.49
0.0112,0.9888	-2784.43
0.0123,0.9877	-2780.10
0.0081,0.9919	-2775.34
0.0161,0.9839	-2801.83
0.0164,0.9836	-2793.67
0.0175,0.9825	-2814.08
0.0117,0.9883	-2784.44
0.0112,0.9888	-2775.47
0.0081,0.9919	-2789.78
0.0145,0.9855	-2789.12
0.0160,0.9840	-2805.93
0.0161,0.9839	-2801.83
0.0103,0.9897	-2779.89
0.0125,0.9875	-2797.62
0.0092,0.9908	-2779.94
0.0160,0.9840	-2793.57
0.0184,0.9816	-2794.22
0.0116,0.9884	-2788.88
0.0113,0.9887	-2784.43
0.0154,0.9846	-2780.99
0.0082,0.9918	-2780.12
0.0125,0.9875	-2806.36
0.0189,0.9811	-2802.28
0.0103,0.9897	-2775.32
0.0125,0.9875	-2784.51
0.0137,0.9863	-2806.10
0.0072,0.9928	-2780.48
0.0139,0.9861	-2801.80
0.0184,0.9816	-2798.18
0.0083,0.9917	-2780.09
0.0093,0.9907	-2775.26
0.0148,0.9852	-2780.78
0.0109,0.9891	-2788.94
0.0154,0.9846	-2810.09
0.0174,0.9826	-2801.98
0.0086,0.9914	-2789.53
0.0103,0.9897	-2779.89
0.0121,0.9879	-2793.28
0.0087,0.9913	-2784.76
0.0177,0.9823	-2814.08
0.0131,0.9869	-2788.92
0.0070,0.9930	-2780.57
0.0102,0.9898	-2793.63
0.0099,0.9901	-2779.89
0.0083,0.9917	-2780.09
0.0175,0.9825	-2810.05
0.0122,0.9878	-2784.48
0.0050,0.9950	-2776.80
0.0096,0.9904	-2803.08
0.0092,0.9908	-2784.62
0.0102,0.9898	-2784.47
0.0203,0.9797	-2791.00
0.0151,0.9849	-2793.42
0.0057,0.9943	-2776.25
0.0100,0.9900	-2779.89
0.0078,0.9922	-2799.60
0.0095,0.9905	-2779.91
0.0185,0.9815	-2778.38
0.0134,0.9866	-2793.25
0.0060,0.9940	-2791.43
0.0130,0.9870	-2788.91
0.0084,0.9916	-2784.85
0.0104,0.9896	-2789.00
0.0197,0.9803	-2790.76
0.0153,0.9847	-2793.45
0.0065,0.9935	-2775.80
0.0143,0.9857	-2810.25
0.0087,0.9913	-2794.22
0.0111,0.9889	-2788.91
0.0180,0.9820	-2778.12
0.0168,0.9832	-2793.76
0.0062,0.9938	-2775.94
0.0174,0.9826	-2789.87
0.0074,0.9926	-2770.59
0.0121,0.9879	-2784.47
0.0180,0.9820	-2782.10
0.0168,0.9832	-2797.83
0.0074,0.9926	-2804.84
0.0206,0.9794	-2806.58
0.0074,0.9926	-2790.17
0.0144,0.9856	-2784.88
0.0194,0.9806	-2786.69
0.0162,0.9838	-2801.83
0.0085,0.9915	-2780.05
0.0151,0.9849	-2805.95
0.0094,0.9906	-2784.58
0.0147,0.9853	-2810.19
0.0119,0.9881	-2793.30
0.0154,0.9846	-2780.99
0.0128,0.9872	-2771.50
0.0172,0.9828	-2793.85
0.0079,0.9921	-2780.21
0.0126,0.9874	-2788.89
0.0125,0.9875	-2784.51
0.0213,0.9787	-2822.09
0.0135,0.9865	-2797.55
0.0172,0.9828	-2810.04
0.0091,0.9909	-2779.96
0.0131,0.9869	-2775.97
0.0119,0.9881	-2793.29
0.0182,0.9818	-2790.14
0.0152,0.9848	-2805.95
0.0178,0.9822	-2806.06
0.0084,0.9916	-2808.67
0.0130,0.9870	-2784.58
0.0106,0.9894	-2784.44
0.0195,0.9805	-2806.35
0.0147,0.9853	-2793.36
0.0169,0.9831	-2785.67
0.0093,0.9907	-2779.93
0.0114,0.9886	-2779.96
0.0136,0.9864	-2788.98
0.0173,0.9827	-2806.00
0.0138,0.9862	-2793.28
0.0180,0.9820	-2798.08
0.0087,0.9913	-2789.48
0.0118,0.9882	-2780.02
0.0151,0.9849	-2785.05
0.0153,0.9847	-2780.97
0.0142,0.9858	-2789.07
0.0212,0.9788	-2791.43
0.0104,0.9896	-2775.34
0.0124,0.9876	-2815.16
0.0167,0.9833	-2797.81
0.0140,0.9860	-2780.52
0.0161,0.9839	-2789.50
0.0203,0.9797	-2806.51
0.0105,0.9895	-2784.44
0.0151,0.9849	-2801.77
0.0223,0.9777	-2810.84
0.0153,0.9847	-2801.78
0.0192,0.9808	-2794.48
0.0200,0.9800	-2794.79
0.0087,0.9913	-2780.02
0.0142,0.9858	-2801.78
0.0176,0.9824	-2802.01
0.0100,0.9900	-2775.29
0.0174,0.9826	-2801.98
0.0174,0.9826	-2789.87
0.0076,0.9924	-2794.94
0.0131,0.9869	-2793.25
0.0230,0.9770	-2811.04
0.0082,0.9918	-2784.90
0.0180,0.9820	-2798.08
0.0177,0.9823	-2814.08
0.0065,0.9935	-2780.83
0.0157,0.9843	-2793.52
0.0191,0.9809	-2798.37
0.0074,0.9926	-2770.58
0.0126,0.9874	-2788.89
0.0163,0.9837	-2810.04
0.0075,0.9925	-2775.47
0.0141,0.9859	-2789.06
0.0175,0.9825	-2802.00
0.0072,0.9928	-2775.54
0.0103,0.9897	-2779.89
0.0179,0.9821	-2802.07
0.0097,0.9903	-2784.52
0.0165,0.9835	-2797.77
0.0172,0.9828	-2777.68
0.0085,0.9915	-2780.06
0.0115,0.9885	-2797.79
0.0160,0.9840	-2781.24
0.0117,0.9883	-2780.00
0.0112,0.9888	-2793.39
0.0194,0.9806	-2810.24
0.0102,0.9898	-2779.89
0.0112,0.9888	-2779.95
0.0146,0.9854	-2789.14
0.0120,0.9880	-2780.06
0.0106,0.9894	-2788.97
0.0171,0.9829	-2797.88
0.0135,0.9865	-2814.73
0.0102,0.9898	-2789.04
0.0115,0.9885	-2784.43
0.0112,0.9888	-2797.87
0.0110,0.9890	-2784.42
0.0158,0.9842	-2785.29
0.0149,0.9851	-2785.00
0.0095,0.9905	-2770.62
0.0136,0.9864	-2793.26
0.0119,0.9881	-2784.45
0.0100,0.9900	-2779.89
0.0166,0.9834	-2785.56
0.0135,0.9865	-2810.42
0.0098,0.9902	-2798.35
0.0135,0.9865	-2788.97
0.0103,0.9897	-2779.89
0.0141,0.9859	-2789.04
0.0145,0.9855	-2780.67
0.0133,0.9867	-2801.86
0.0090,0.9910	-2779.97
0.0116,0.9884	-2780.00
0.0116,0.9884	-2793.33
0.0146,0.9854	-2776.48
0.0140,0.9860	-2793.29
0.0172,0.9828	-2797.91
0.0103,0.9897	-2779.89
0.0129,0.9871	-2793.25
0.0109,0.9891	-2779.92
0.0133,0.9867	-2797.56
0.0163,0.9837	-2797.74
0.0189,0.9811	-2810.18
0.0117,0.9883	-2793.31
0.0111,0.9889	-2788.91
0.0108,0.9892	-2784.43
0.0158,0.9842	-2789.42
0.0169,0.9831	-2789.73
0.0196,0.9804	-2802.44
0.0118,0.9882	-2784.45
0.0111,0.9889	-2793.40
0.0124,0.9876	-2784.50
0.0183,0.9817	-2798.16
0.0179,0.9821	-2806.07
0.0194,0.9806	-2790.62
0.0108,0.9892	-2793.47
0.0117,0.9883	-2793.32
0.0126,0.9874	-2775.80
0.0182,0.9818	-2802.13
0.0156,0.9844	-2785.20
0.0152,0.9848	-2789.27
0.0094,0.9906	-2793.89
0.0130,0.9870	-2793.25
0.0119,0.9881	-2802.14
0.0150,0.9850	-2780.85
0.0144,0.9856	-2801.78
0.0134,0.9866	-2793.25
0.0117,0.9883	-2802.18
0.0132,0.9868	-2784.63
0.0122,0.9878	-2806.44
0.0135,0.9865	-2793.26
0.0129,0.9871	-2780.24
0.0110,0.9890	-2793.42
0.0123,0.9877	-2802.05
0.0133,0.9867	-2788.95
0.0130,0.9870	-2797.57
0.0105,0.9895	-2788.99
0.0119,0.9881	-2793.29
0.0127,0.9873	-2784.54
0.0136,0.9864	-2788.98
0.0120,0.9880	-2802.12
0.0157,0.9843	-2805.93
0.0127,0.9873	-2780.19
0.0121,0.9879	-2797.68
0.0155,0.9845	-2810.09
0.0137,0.9863	-2810.38
0.0148,0.9852	-2784.96
0.0142,0.9858	-2797.55
0.0145,0.9855	-2780.69
0.0114,0.9886	-2788.89
0.0182,0.9818	-2794.16
0.0147,0.9853	-2793.36
0.0161,0.9839	-2810.05
0.0157,0.9843	-2805.93
0.0147,0.9853	-2801.77
0.0153,0.9847	-2797.61
0.0152,0.9848	-2793.43
0.0151,0.9849	-2785.05
0.0147,0.9853	-2789.15
0.0182,0.9818	-2814.09
0.0108,0.9892	-2788.95
0.0122,0.9878	-2775.71
0.0123,0.9877	-2793.27
0.0150,0.9850	-2789.22
0.0193,0.9807	-2790.57
0.0191,0.9809	-2794.45
0.0102,0.9898	-2784.47
0.0148,0.9852	-2784.99
0.0139,0.9861	-2801.80
0.0134,0.9866	-2788.95
0.0184,0.9816	-2802.17
0.0173,0.9827	-2797.92
0.0115,0.9885	-2779.97
0.0158,0.9842	-2814.19
0.0113,0.9887	-2802.33
0.0118,0.9882	-2788.88
0.0224,0.9776	-2799.54
0.0159,0.9841	-2793.56
0.0097,0.9903	-2798.41
0.0137,0.9863	-2793.27
0.0089,0.9911	-2775.27
0.0149,0.9851	-2810.16
0.0203,0.9797	-2794.89
0.0160,0.9840	-2797.70
0.0114,0.9886	-2771.03
0.0159,0.9841	-2805.93
0.0102,0.9898	-2807.31
0.0149,0.9851	-2805.96
0.0192,0.9808	-2829.88
0.0131,0.9869	-2788.92
0.0151,0.9849	-2793.42
0.0124,0.9876	-2788.88
0.0101,0.9899	-2779.89
0.0147,0.9853	-2784.96
0.0156,0.9844	-2789.37
0.0129,0.9871	-2788.91
0.0132,0.9868	-2797.56
0.0124,0.9876	-2784.50
0.0094,0.9906	-2784.58
0.0189,0.9811	-2798.31
0.0144,0.9856	-2789.10
0.0150,0.9850	-2789.21
0.0122,0.9878	-2784.48
0.0107,0.9893	-2788.96
0.0113,0.9887	-2811.25
0.0160,0.9840	-2805.94
0.0148,0.9852	-2797.57
0.0114,0.9886	-2793.35
0.0124,0.9876	-2793.26
0.0121,0.9879	-2784.48
0.0148,0.9852	-2801.77
0.0227,0.9773	-2799.68
0.0157,0.9843	-2801.79
0.0120,0.9880	-2793.28
0.0112,0.9888	-2788.90
0.0132,0.9868	-2793.25
0.0169,0.9831	-2793.79
0.0149,0.9851	-2780.81
0.0173,0.9827	-2810.05
0.0118,0.9882	-2788.88
0.0092,0.9908	-2798.64
0.0157,0.9843	-2814.21
0.0169,0.9831	-2793.78
0.0162,0.9838	-2801.84
0.0197,0.9803	-2794.65
0.0126,0.9874	-2793.25
0.0117,0.9883	-2788.88
0.0177,0.9823	-2793.99
0.0193,0.9807	-2806.30
0.0152,0.9848	-2793.44
0.0204,0.9796	-2798.79
0.0108,0.9892	-2797.99
0.0157,0.9843	-2805.93
0.0161,0.9839	-2793.61
0.0167,0.9833	-2797.81
0.0168,0.9832	-2797.83
0.0245,0.9755	-2804.13
0.0084,0.9916	-2775.30
0.0190,0.9810	-2798.36
0.0138,0.9862	-2784.74
0.0174,0.9826	-2806.02
0.0127,0.9873	-2784.55
0.0330,0.9670	-2822.01
0.0101,0.9899	-2784.47
0.0222,0.9778	-2814.60
0.0103,0.9897	-2784.45
0.0169,0.9831	-2797.85
0.0132,0.9868	-2788.93
0.0295,0.9705	-2817.04
0.0093,0.9907	-2789.27
0.0224,0.9776	-2818.43
0.0131,0.9869	-2780.28
0.0158,0.9842	-2793.53
0.0125,0.9875	-2788.89
0.0215,0.9785	-2814.47
0.0088,0.9912	-2794.15
0.0207,0.9793	-2791.17
0.0121,0.9879	-2788.88
0.0157,0.9843	-2789.38
0.0113,0.9887	-2802.33
0.0225,0.9775	-2810.89
0.0088,0.9912	-2794.19
0.0193,0.9807	-2786.65
0.0151,0.9849	-2785.07
0.0191,0.9809	-2806.26
0.0131,0.9869	-2806.21
0.0185,0.9815	-2810.13
0.0099,0.9901	-2775.29
0.0194,0.9806	-2810.25
0.0145,0.9855	-2780.67
0.0155,0.9845	-2793.48
0.0124,0.9876	-2806.39
0.0183,0.9817	-2794.18
0.0107,0.9893	-2788.96
0.0197,0.9803	-2798.55
0.0146,0.9854	-2801.77
0.0148,0.9852	-2797.57
0.0118,0.9882	-2793.30
0.0198,0.9802	-2810.30
0.0099,0.9901	-2789.11
0.0161,0.9839	-2805.94
0.0168,0.9832	-2814.11
0.0132,0.9868	-2788.93
0.0136,0.9864	-2788.97
0.0167,0.9833	-2793.74
0.0101,0.9899	-2821.13
0.0184,0.9816	-2794.21
0.0203,0.9797	-2810.40
0.0142,0.9858	-2810.27
0.0124,0.9876	-2780.12
0.0160,0.9840	-2810.06
0.0075,0.9925	-2790.13
0.0161,0.9839	-2801.83
0.0222,0.9778	-2825.97
0.0138,0.9862	-2793.28
0.0114,0.9886	-2788.89
0.0146,0.9854	-2789.14
0.0059,0.9941	-2776.12
0.0161,0.9839	-2785.36
0.0211,0.9789	-2799.03
0.0135,0.9865	-2801.84
0.0127,0.9873	-2793.25
0.0146,0.9854	-2801.77
0.0084,0.9916	-2780.07
0.0159,0.9841	-2793.57
0.0250,0.9750	-2804.38
0.0146,0.9854	-2805.98
0.0130,0.9870	-2780.25
0.0152,0.9848	-2797.61
0.0104,0.9896	-2784.45
0.0152,0.9848	-2805.94
0.0208,0.9792	-2798.94
0.0128,0.9872	-2801.94
0.0130,0.9870	-2801.90
0.0160,0.9840	-2801.81
0.0136,0.9864	-2793.26
0.0176,0.9824	-2789.95
0.0185,0.9815	-2798.21
0.0158,0.9842	-2785.28
0.0147,0.9853	-2789.15
0.0137,0.9863	-2780.44
0.0139,0.9861	-2801.81
0.0149,0.9851	-2789.20
0.0174,0.9826	-2785.87
0.0140,0.9860	-2797.54
0.0141,0.9859	-2789.05
0.0099,0.9901	-2798.29
0.0113,0.9887	-2779.96
0.0164,0.9836	-2789.56
0.0213,0.9787	-2795.28
0.0159,0.9841	-2797.68
0.0145,0.9855	-2797.55
0.0098,0.9902	-2789.12
0.0099,0.9901	-2798.30
0.0145,0.9855	-2789.11
0.0228,0.9772	-2803.46
0.0130,0.9870	-2801.91
0.0132,0.9868	-2776.00
0.0094,0.9906	-2779.92
0.0102,0.9898	-2798.17
0.0137,0.9863	-2788.99
0.0201,0.9799	-2794.81
0.0141,0.9859	-2784.80
0.0134,0.9866	-2780.36
0.0099,0.9901	-2789.10
0.0095,0.9905	-2779.91
0.0157,0.9843	-2793.51
0.0229,0.9771	-2803.51
0.0145,0.9855	-2806.00
0.0133,0.9867	-2793.25
0.0090,0.9910	-2779.96
0.0111,0.9889	-2779.94
0.0143,0.9857	-2784.84
0.0224,0.9776	-2807.10
0.0158,0.9842	-2789.41
0.0136,0.9864	-2788.98
0.0096,0.9904	-2775.27
0.0102,0.9898	-2779.89
0.0152,0.9848	-2805.95
