#isoforms=['ENSG00000186575.SE.4.A.up_ENSG00000186575.SE.4.A.SE1_ENSG00000186575.SE.4.A.dn','ENSG00000186575.SE.4.B.up_ENSG00000186575.SE.4.B.dn']	exon_lens=('ENSG00000186575.SE.4.A.up',128),('ENSG00000186575.SE.4.A.SE1',163),('ENSG00000186575.SE.4.A.dn',3847),('ENSG00000186575.SE.4.B.up',128),('ENSG00000186575.SE.4.B.dn',194)	iters=5000	burn_in=500	lag=10	percent_accept=93.55	proposal_type=drift	counts=(0,0):42,(1,0):277,(1,1):39	assigned_counts=0:299,1:17	chrom=chr22	strand=+	mRNA_starts=29678196,29678196	mRNA_ends=29698598,29694945
sampled_psi	log_score
0.6476,0.3524	-2648.90
0.4431,0.5569	-2650.64
0.6716,0.3284	-2649.10
0.5700,0.4300	-2648.28
0.6742,0.3258	-2649.86
0.4544,0.5456	-2650.91
0.6639,0.3361	-2648.34
0.4917,0.5083	-2650.54
0.6346,0.3654	-2648.29
0.5607,0.4393	-2650.47
0.6897,0.3103	-2647.75
0.4694,0.5306	-2650.98
0.6758,0.3242	-2651.36
0.5214,0.4786	-2650.61
0.6898,0.3102	-2650.94
0.5395,0.4605	-2649.61
0.6774,0.3226	-2648.43
0.5361,0.4639	-2650.40
0.6517,0.3483	-2648.30
0.5331,0.4669	-2650.00
0.5876,0.4124	-2649.66
0.5551,0.4449	-2650.44
0.7100,0.2900	-2647.02
0.4804,0.5196	-2650.49
0.5918,0.4082	-2650.03
0.4591,0.5409	-2650.84
0.5043,0.4957	-2650.60
0.5469,0.4531	-2650.41
0.7004,0.2996	-2646.13
0.4400,0.5600	-2651.88
0.5919,0.4081	-2650.03
0.4455,0.5545	-2650.84
0.4793,0.5207	-2650.66
0.5798,0.4202	-2649.34
0.6689,0.3311	-2645.56
0.4166,0.5834	-2651.41
0.6002,0.3998	-2650.09
0.4579,0.5421	-2650.86
0.4718,0.5282	-2650.94
0.5708,0.4292	-2650.54
0.6844,0.3156	-2649.27
0.4951,0.5049	-2650.68
0.5958,0.4042	-2648.90
0.4750,0.5250	-2650.99
0.4946,0.5054	-2650.61
0.5531,0.4469	-2650.00
0.6505,0.3495	-2648.29
0.4682,0.5318	-2651.00
0.6012,0.3988	-2651.74
0.4363,0.5637	-2651.49
0.4825,0.5175	-2650.57
0.5622,0.4378	-2650.23
0.6722,0.3278	-2649.11
0.4493,0.5507	-2649.77
0.6125,0.3875	-2649.29
0.4535,0.5465	-2651.48
0.5066,0.4934	-2650.59
0.6043,0.3957	-2648.01
0.6404,0.3596	-2648.86
0.5488,0.4512	-2651.00
0.6197,0.3803	-2652.24
0.4752,0.5248	-2650.78
0.4861,0.5139	-2650.79
0.6308,0.3692	-2648.83
0.6771,0.3229	-2649.17
0.5081,0.4919	-2650.69
0.6486,0.3514	-2650.13
0.4795,0.5205	-2650.74
0.5317,0.4683	-2650.15
0.5358,0.4642	-2650.11
0.5996,0.4004	-2651.30
0.5284,0.4716	-2650.41
0.6601,0.3399	-2650.98
0.4417,0.5583	-2651.36
0.5815,0.4185	-2650.32
0.5412,0.4588	-2650.23
0.6401,0.3599	-2647.71
0.4866,0.5134	-2650.84
0.6749,0.3251	-2646.95
0.4110,0.5890	-2651.21
0.5603,0.4397	-2650.95
0.4845,0.5155	-2650.45
0.5995,0.4005	-2650.49
0.4341,0.5659	-2650.23
0.6947,0.3053	-2648.60
0.4223,0.5777	-2650.96
0.5207,0.4793	-2650.19
0.4644,0.5356	-2651.35
0.6032,0.3968	-2648.44
0.5030,0.4970	-2650.63
0.6919,0.3081	-2650.19
0.4654,0.5346	-2651.46
0.5566,0.4434	-2650.90
0.5625,0.4375	-2650.98
0.5477,0.4523	-2650.22
0.5189,0.4811	-2650.22
0.6883,0.3117	-2650.12
0.4752,0.5248	-2650.78
0.6127,0.3873	-2650.66
0.5245,0.4755	-2650.03
0.5774,0.4226	-2650.29
0.4694,0.5306	-2650.49
0.6300,0.3700	-2650.96
0.5053,0.4947	-2650.59
0.5830,0.4170	-2651.00
0.4860,0.5140	-2650.79
0.5824,0.4176	-2648.99
0.4514,0.5486	-2650.96
0.6354,0.3646	-2647.18
0.5026,0.4974	-2650.57
0.5561,0.4439	-2651.12
0.5063,0.4937	-2650.54
0.6184,0.3816	-2652.68
0.4895,0.5105	-2650.57
0.6471,0.3529	-2650.11
0.4705,0.5295	-2650.25
0.5566,0.4434	-2650.22
0.5180,0.4820	-2650.24
0.5646,0.4354	-2650.23
0.5131,0.4869	-2650.54
0.6377,0.3623	-2647.72
0.4581,0.5419	-2650.86
0.5860,0.4140	-2651.74
0.5080,0.4920	-2650.56
0.5925,0.4075	-2649.66
0.5344,0.4656	-2649.85
0.5642,0.4358	-2649.71
0.3928,0.6072	-2654.35
0.5829,0.4171	-2649.99
0.5179,0.4821	-2650.60
0.5433,0.4567	-2649.88
0.5251,0.4749	-2650.32
0.6000,0.4000	-2648.47
0.4224,0.5776	-2652.52
0.5384,0.4616	-2650.55
0.4552,0.5448	-2651.26
0.5461,0.4539	-2650.96
0.5528,0.4472	-2650.00
0.6304,0.3696	-2650.97
0.4522,0.5478	-2651.52
0.5524,0.4476	-2649.79
0.4748,0.5252	-2650.79
0.5772,0.4228	-2651.22
0.5982,0.4018	-2648.88
0.6656,0.3344	-2649.04
0.4564,0.5436	-2651.23
0.5619,0.4381	-2650.22
0.5049,0.4951	-2650.58
0.4986,0.5014	-2650.62
0.6024,0.3976	-2650.11
0.6454,0.3546	-2650.68
0.4899,0.5101	-2650.73
0.5809,0.4191	-2651.29
0.5179,0.4821	-2650.74
0.5444,0.4556	-2650.40
0.6397,0.3603	-2646.56
0.5926,0.4074	-2649.66
0.5145,0.4855	-2650.71
0.5880,0.4120	-2651.79
0.4908,0.5092	-2650.83
0.5817,0.4183	-2651.31
0.6405,0.3595	-2652.33
0.5684,0.4316	-2649.97
0.5135,0.4865	-2650.65
0.5642,0.4358	-2651.26
0.4755,0.5245	-2651.07
0.6028,0.3972	-2650.53
0.6320,0.3680	-2651.54
0.5120,0.4880	-2650.54
0.4820,0.5180	-2650.35
0.5977,0.4023	-2650.47
0.4684,0.5316	-2650.99
0.6160,0.3840	-2650.71
0.6193,0.3807	-2649.31
0.4878,0.5122	-2650.86
0.5119,0.4881	-2650.59
0.5913,0.4087	-2650.40
0.4231,0.5769	-2651.87
0.6028,0.3972	-2651.36
0.6152,0.3848	-2649.29
0.4745,0.5255	-2650.89
0.4839,0.5161	-2650.57
0.6184,0.3816	-2650.27
0.4473,0.5527	-2650.39
0.5737,0.4263	-2650.27
0.5783,0.4217	-2649.03
0.4454,0.5546	-2651.71
0.5052,0.4948	-2650.49
0.5900,0.4100	-2650.75
0.4718,0.5282	-2650.71
0.5775,0.4225	-2649.67
0.5625,0.4375	-2649.47
0.4708,0.5292	-2650.72
0.4603,0.5397	-2650.51
0.5825,0.4175	-2649.99
0.4585,0.5415	-2650.85
0.5532,0.4468	-2650.86
0.5556,0.4444	-2649.99
0.5092,0.4908	-2650.52
0.4626,0.5374	-2651.25
0.6021,0.3979	-2649.69
0.4753,0.5247	-2651.28
0.6042,0.3958	-2650.55
0.5782,0.4218	-2650.30
0.4764,0.5236	-2651.34
0.4785,0.5215	-2650.15
0.5808,0.4192	-2649.99
0.5052,0.4948	-2650.64
0.6073,0.3927	-2648.84
0.5430,0.4570	-2650.40
0.5155,0.4845	-2650.47
0.4752,0.5248	-2650.78
0.5337,0.4663	-2650.40
0.4417,0.5583	-2651.60
0.5780,0.4220	-2648.09
0.4864,0.5136	-2651.00
0.5561,0.4439	-2650.44
0.5101,0.4899	-2650.75
0.5445,0.4555	-2649.51
0.4115,0.5885	-2651.19
0.5634,0.4366	-2651.76
0.4115,0.5885	-2651.19
0.5979,0.4021	-2648.09
0.4462,0.5538	-2651.04
0.5098,0.4902	-2650.71
0.4474,0.5526	-2650.18
0.5693,0.4307	-2651.64
0.3401,0.6599	-2653.00
0.5420,0.4580	-2651.24
0.4852,0.5148	-2650.98
0.5719,0.4281	-2649.97
0.4018,0.5982	-2651.05
0.5936,0.4064	-2648.91
0.3820,0.6180	-2650.20
0.5396,0.4604	-2649.76
0.4674,0.5326	-2650.49
0.5542,0.4458	-2649.56
0.4277,0.5723	-2651.15
0.6089,0.3911	-2645.74
0.3758,0.6242	-2648.83
0.5424,0.4576	-2649.72
0.3997,0.6003	-2652.33
0.5192,0.4808	-2650.60
0.4239,0.5761	-2652.46
0.5323,0.4677	-2650.79
0.4279,0.5721	-2651.43
0.5144,0.4856	-2650.36
0.4562,0.5438	-2651.06
0.4346,0.5654	-2650.49
0.4776,0.5224	-2650.04
0.5145,0.4855	-2650.54
0.4564,0.5436	-2650.53
0.5589,0.4411	-2648.80
0.4900,0.5100	-2650.53
0.4493,0.5507	-2651.60
0.5512,0.4488	-2651.24
0.4949,0.5051	-2650.63
0.5070,0.4930	-2650.59
0.5807,0.4193	-2649.01
0.4419,0.5581	-2649.49
0.4513,0.5487	-2650.96
0.5106,0.4894	-2650.67
0.4635,0.5365	-2650.35
0.4828,0.5172	-2650.71
0.5822,0.4178	-2650.99
0.4355,0.5645	-2649.96
0.4641,0.5359	-2651.50
0.5137,0.4863	-2650.48
0.4555,0.5445	-2651.97
0.4233,0.5767	-2652.17
0.6195,0.3805	-2648.82
0.4712,0.5288	-2650.71
0.5007,0.4993	-2650.60
0.4632,0.5368	-2650.50
0.4103,0.5897	-2649.77
0.4650,0.5350	-2650.49
0.6418,0.3582	-2648.28
0.4803,0.5197	-2650.89
0.4073,0.5927	-2653.18
0.5310,0.4690	-2650.41
0.4025,0.5975	-2652.22
0.4397,0.5603	-2651.17
0.6710,0.3290	-2647.67
0.4899,0.5101	-2650.73
0.4618,0.5382	-2650.66
0.4733,0.5267	-2650.59
0.3888,0.6112	-2653.23
0.4336,0.5664	-2651.30
0.6548,0.3452	-2654.07
0.4610,0.5390	-2650.51
0.4061,0.5939	-2652.47
0.5242,0.4758	-2650.23
0.3914,0.6086	-2648.69
0.4063,0.5937	-2650.95
0.6694,0.3306	-2654.02
0.4751,0.5249	-2651.18
0.4102,0.5898	-2652.31
0.5726,0.4274	-2652.02
0.4764,0.5236	-2650.01
0.4718,0.5282	-2650.71
0.6305,0.3695	-2647.76
0.4842,0.5158	-2650.44
0.3965,0.6035	-2649.93
0.6329,0.3671	-2647.20
0.5555,0.4445	-2649.99
0.5047,0.4953	-2650.54
0.6736,0.3264	-2649.85
0.4942,0.5058	-2650.56
0.3528,0.6472	-2652.93
0.6130,0.3870	-2650.21
0.5578,0.4422	-2649.29
0.4735,0.5265	-2651.01
0.6759,0.3241	-2648.42
0.4704,0.5296	-2651.08
0.3667,0.6333	-2653.35
0.5675,0.4325	-2651.06
0.5520,0.4480	-2649.38
0.5023,0.4977	-2650.60
0.6431,0.3569	-2648.87
0.4672,0.5328	-2651.15
0.3824,0.6176	-2653.07
0.6141,0.3859	-2648.83
0.5353,0.4647	-2650.54
0.5114,0.4886	-2650.64
0.6211,0.3789	-2651.79
0.5001,0.4999	-2650.61
0.3787,0.6213	-2653.25
0.5696,0.4304	-2650.53
0.5307,0.4693	-2650.41
0.5794,0.4206	-2652.23
0.5968,0.4032	-2648.50
0.5485,0.4515	-2651.19
0.3853,0.6147	-2651.53
0.5530,0.4470	-2650.00
0.4718,0.5282	-2650.82
0.5638,0.4362	-2649.46
0.6259,0.3741	-2650.37
0.5745,0.4255	-2649.07
0.4712,0.5288	-2650.83
0.5803,0.4197	-2649.66
0.4945,0.5055	-2650.67
0.5209,0.4791	-2650.52
0.5870,0.4130	-2651.42
0.5888,0.4112	-2648.22
0.4958,0.5042	-2650.71
0.6500,0.3500	-2650.15
0.5190,0.4810	-2650.60
0.5234,0.4766	-2650.24
0.5794,0.4206	-2649.98
0.5910,0.4090	-2650.40
0.4677,0.5323	-2650.36
0.6855,0.3145	-2648.50
0.5190,0.4810	-2650.53
0.5493,0.4507	-2649.82
0.5898,0.4102	-2650.02
0.6010,0.3990	-2650.51
0.5464,0.4536	-2650.59
0.6904,0.3096	-2651.76
0.4888,0.5112	-2650.88
0.4985,0.5015	-2650.62
0.5469,0.4531	-2650.03
0.6157,0.3843	-2651.18
0.5550,0.4450	-2649.11
0.6511,0.3489	-2647.05
0.4695,0.5305	-2651.34
0.5935,0.4065	-2650.80
0.5016,0.4984	-2650.57
0.6260,0.3740	-2650.88
0.5272,0.4728	-2650.41
0.6103,0.3897	-2650.18
0.4400,0.5600	-2652.12
0.6233,0.3767	-2650.33
0.5304,0.4696	-2650.41
0.6831,0.3169	-2650.79
0.5616,0.4384	-2650.97
0.6089,0.3911	-2650.17
0.4284,0.5716	-2650.27
0.6156,0.3844	-2649.30
0.5608,0.4392	-2650.71
0.6897,0.3103	-2650.14
0.5556,0.4444	-2649.99
0.5644,0.4356	-2650.49
0.4627,0.5373	-2650.50
0.6494,0.3506	-2648.29
0.5378,0.4622	-2651.16
0.6693,0.3307	-2649.78
0.6284,0.3716	-2648.83
0.5368,0.4632	-2650.10
0.4786,0.5214	-2650.58
0.6208,0.3792	-2648.82
0.4903,0.5097	-2650.54
0.6883,0.3117	-2648.53
0.6419,0.3581	-2648.28
0.5492,0.4508	-2649.82
0.5474,0.4526	-2650.79
0.6535,0.3465	-2647.67
0.4885,0.5115	-2650.98
0.6836,0.3164	-2653.11
0.6694,0.3306	-2645.55
0.5735,0.4265	-2650.86
0.5438,0.4562	-2650.40
0.6562,0.3438	-2648.31
0.5110,0.4890	-2650.63
0.6641,0.3359	-2649.03
0.6576,0.3424	-2650.27
0.5331,0.4669	-2650.27
0.5158,0.4842	-2650.41
0.6250,0.3750	-2648.31
0.5593,0.4407	-2649.27
0.6986,0.3014	-2649.49
0.6541,0.3459	-2652.76
0.6004,0.3996	-2652.13
0.5072,0.4928	-2650.62
0.5867,0.4133	-2648.96
0.5829,0.4171	-2647.99
0.6867,0.3133	-2652.44
0.6033,0.3967	-2647.18
0.5447,0.4553	-2651.48
0.4953,0.5047	-2650.64
0.5913,0.4087	-2651.14
0.6236,0.3764	-2650.84
0.7359,0.2641	-2644.17
0.5822,0.4178	-2649.33
0.5125,0.4875	-2650.44
0.4708,0.5292	-2650.60
0.5098,0.4902	-2650.35
0.5900,0.4100	-2650.02
0.6822,0.3178	-2648.47
0.5523,0.4477	-2650.84
0.5034,0.4966	-2650.50
0.4558,0.5442	-2650.36
0.5362,0.4638	-2649.96
0.6247,0.3753	-2649.33
0.6302,0.3698	-2649.36
0.4878,0.5122	-2650.62
0.5057,0.4943	-2650.71
0.4562,0.5438	-2650.71
0.5266,0.4734	-2650.74
0.6139,0.3861	-2651.15
0.6414,0.3586	-2649.45
0.4817,0.5183	-2650.72
0.5164,0.4836	-2650.73
0.5023,0.4977	-2650.58
0.4931,0.5069	-2650.69
0.5841,0.4159	-2651.70
0.6314,0.3686	-2648.29
0.5542,0.4458	-2650.43
0.4409,0.5591	-2649.95
0.4893,0.5107	-2650.57
0.4752,0.5248	-2650.88
0.5363,0.4637	-2650.69
0.6496,0.3504	-2647.06
0.5268,0.4732	-2650.42
0.4803,0.5197	-2650.34
0.4620,0.5380	-2650.66
0.5154,0.4846	-2650.78
0.5658,0.4342	-2650.50
0.6378,0.3622	-2649.42
0.5627,0.4373	-2650.73
0.4713,0.5287	-2650.14
0.5333,0.4667	-2650.94
0.6309,0.3691	-2650.44
0.5561,0.4439	-2649.31
0.5833,0.4167	-2651.00
0.5423,0.4577	-2650.23
0.4875,0.5125	-2650.42
0.4682,0.5318	-2650.74
0.5889,0.4111	-2650.38
0.5490,0.4510	-2650.41
0.6070,0.3930	-2649.71
0.5304,0.4696	-2650.04
0.4556,0.5444	-2650.71
0.5433,0.4567	-2650.23
0.6018,0.3982	-2650.10
0.5112,0.4888	-2650.59
0.5983,0.4017	-2652.47
0.5699,0.4301	-2652.22
0.4474,0.5526	-2649.97
0.5243,0.4757	-2650.43
0.6001,0.3999	-2651.31
0.5313,0.4687	-2649.78
0.5928,0.4072	-2650.79
0.5512,0.4488	-2650.63
0.4748,0.5252	-2650.38
0.5146,0.4854	-2650.77
0.5646,0.4354	-2650.49
0.5317,0.4683	-2650.15
0.6404,0.3596	-2651.17
0.5488,0.4512	-2650.41
0.4984,0.5016	-2650.62
0.5550,0.4450	-2649.33
0.5708,0.4292	-2649.40
0.5885,0.4115	-2651.45
0.6585,0.3415	-2646.35
0.6392,0.3608	-2650.00
0.4999,0.5001	-2650.61
0.5713,0.4287	-2648.82
0.5001,0.4999	-2650.61
0.5609,0.4391	-2650.47
0.6432,0.3568	-2647.70
0.6484,0.3516	-2644.62
0.4486,0.5514	-2650.18
0.5159,0.4841	-2650.72
0.5640,0.4360	-2651.26
0.5865,0.4135	-2650.71
0.6652,0.3348	-2646.29
0.6467,0.3533	-2651.91
0.4641,0.5359	-2650.35
0.5584,0.4416	-2651.16
0.5737,0.4263	-2650.57
0.5851,0.4149	-2649.66
0.6610,0.3390	-2648.33
0.6104,0.3896	-2650.63
0.5462,0.4538	-2651.52
0.5379,0.4621	-2651.01
0.6371,0.3629	-2649.41
0.6387,0.3613	-2648.28
0.6736,0.3264	-2648.40
0.5782,0.4218	-2649.66
0.5394,0.4606	-2650.71
0.5517,0.4483	-2649.39
0.6624,0.3376	-2649.68
0.6734,0.3266	-2649.85
0.6741,0.3259	-2649.86
0.6027,0.3973	-2648.86
0.5273,0.4727	-2650.63
0.6197,0.3803	-2647.84
0.6442,0.3558	-2649.47
0.6606,0.3394	-2645.66
0.6560,0.3440	-2650.25
0.6370,0.3630	-2647.16
0.4919,0.5081	-2650.67
0.6753,0.3247	-2649.15
0.6359,0.3641	-2649.96
0.6168,0.3832	-2647.40
0.6817,0.3183	-2648.47
0.5988,0.4012	-2649.28
0.5054,0.4946	-2650.51
0.7012,0.2988	-2647.83
0.6050,0.3950	-2648.42
0.6203,0.3797	-2649.31
0.6835,0.3165	-2651.56
0.6428,0.3572	-2650.64
0.5007,0.4993	-2650.61
0.7410,0.2590	-2646.25
0.6204,0.3796	-2648.33
0.5816,0.4184	-2650.32
0.6443,0.3557	-2650.66
0.6451,0.3549	-2651.28
0.5608,0.4392	-2649.73
0.7295,0.2705	-2650.15
0.6748,0.3252	-2649.87
0.5439,0.4561	-2649.70
0.6400,0.3600	-2648.28
0.6044,0.3956	-2650.97
0.5992,0.4008	-2650.08
0.7476,0.2524	-2653.90
0.7083,0.2917	-2647.01
0.4807,0.5193	-2651.50
0.6138,0.3862	-2650.68
0.6383,0.3617	-2647.72
0.5984,0.4016	-2650.87
0.7532,0.2468	-2653.05
0.6961,0.3039	-2644.48
0.4958,0.5042	-2650.61
0.6786,0.3214	-2646.95
0.6584,0.3416	-2648.32
0.5769,0.4231	-2651.53
0.7845,0.2155	-2646.79
0.6379,0.3621	-2648.85
0.4795,0.5205	-2651.07
0.6829,0.3171	-2650.01
0.6430,0.3570	-2647.70
0.6004,0.3996	-2651.31
0.7762,0.2238	-2647.89
0.6355,0.3645	-2648.29
0.4287,0.5713	-2649.12
0.6205,0.3795	-2649.80
0.6435,0.3565	-2648.29
0.6429,0.3571	-2649.46
0.7832,0.2168	-2644.20
0.6573,0.3427	-2647.01
0.4147,0.5853	-2651.46
0.6006,0.3994	-2650.50
0.6146,0.3854	-2649.76
0.6627,0.3373	-2653.06
0.7745,0.2255	-2641.69
0.6357,0.3643	-2649.96
0.4603,0.5397	-2652.42
0.6550,0.3450	-2652.79
0.6076,0.3924	-2648.40
0.6427,0.3573	-2651.81
0.7508,0.2492	-2648.54
0.6256,0.3744	-2649.85
0.5184,0.4816	-2650.31
0.6519,0.3481	-2650.81
0.6219,0.3781	-2648.32
0.6181,0.3819	-2649.30
0.7708,0.2292	-2649.00
0.6142,0.3858	-2648.36
0.5207,0.4793	-2650.44
0.6376,0.3624	-2652.81
0.5886,0.4114	-2650.38
0.5877,0.4123	-2650.72
0.7497,0.2503	-2646.32
0.6982,0.3018	-2646.97
0.5391,0.4609	-2650.40
0.6316,0.3684	-2647.22
0.6116,0.3884	-2647.92
0.6138,0.3862	-2651.61
0.8054,0.1946	-2644.38
0.7239,0.2761	-2645.19
0.4949,0.5051	-2650.61
0.6009,0.3991	-2649.69
0.5912,0.4088	-2650.03
0.5881,0.4119	-2648.59
0.8133,0.1867	-2650.36
0.7422,0.2578	-2644.14
0.5008,0.4992	-2650.61
0.6148,0.3852	-2649.29
0.5981,0.4019	-2652.46
0.5715,0.4285	-2650.55
0.8043,0.1957	-2648.61
0.7359,0.2641	-2650.31
0.4830,0.5170	-2650.57
0.6389,0.3611	-2648.28
0.5914,0.4086	-2648.55
0.5718,0.4282	-2648.53
0.7818,0.2182	-2645.47
0.7467,0.2533	-2641.97
0.4398,0.5602	-2652.13
0.5937,0.4063	-2652.32
0.6175,0.3825	-2649.30
0.5870,0.4130	-2648.60
0.8120,0.1880	-2641.53
0.7446,0.2554	-2650.56
0.4825,0.5175	-2650.85
0.6072,0.3928	-2647.97
0.5578,0.4422	-2650.22
0.5836,0.4164	-2647.97
0.8112,0.1888	-2647.36
0.7731,0.2269	-2646.60
0.4738,0.5262	-2649.86
0.6783,0.3217	-2646.20
0.6036,0.3964	-2649.70
0.5059,0.4941	-2650.66
0.7600,0.2400	-2646.43
0.7991,0.2009	-2645.70
0.4610,0.5390	-2650.35
0.6464,0.3536	-2648.89
0.5527,0.4473	-2649.79
0.5263,0.4737	-2649.89
0.7821,0.2179	-2640.36
0.8131,0.1869	-2645.94
0.4485,0.5515	-2651.42
0.6315,0.3685	-2650.99
0.5330,0.4670	-2650.93
0.5153,0.4847	-2650.59
0.7734,0.2266	-2641.70
0.8361,0.1639	-2639.96
0.4877,0.5123	-2650.72
0.6806,0.3194	-2654.51
0.5654,0.4346	-2649.97
0.6092,0.3908	-2648.84
0.7637,0.2363	-2644.13
0.8354,0.1646	-2641.58
0.4753,0.5247	-2650.78
0.7010,0.2990	-2646.13
0.5315,0.4685	-2650.03
0.6426,0.3574	-2647.70
0.7929,0.2071	-2650.98
0.8129,0.1871	-2644.47
0.4606,0.5394	-2651.46
0.6749,0.3251	-2646.95
0.4726,0.5274	-2650.26
0.6523,0.3477	-2653.96
0.7831,0.2169	-2648.05
0.7945,0.2055	-2637.51
0.5241,0.4759	-2650.14
0.7140,0.2860	-2647.04
0.4967,0.5033	-2650.62
0.6479,0.3521	-2650.73
0.7897,0.2103	-2645.56
0.8135,0.1865	-2648.90
0.5463,0.4537	-2650.78
0.7225,0.2775	-2646.15
0.5568,0.4432	-2651.59
0.6295,0.3705	-2649.89
0.7961,0.2039	-2644.29
0.8034,0.1966	-2652.80
0.4961,0.5039	-2650.62
0.6899,0.3101	-2647.75
0.5665,0.4335	-2651.04
0.5736,0.4264	-2649.68
0.8073,0.1927	-2645.83
0.8104,0.1896	-2642.99
0.5719,0.4281	-2651.42
0.7203,0.2797	-2644.25
0.5270,0.4730	-2650.42
0.5903,0.4097	-2648.93
0.8162,0.1838	-2644.51
0.7942,0.2058	-2651.02
0.6404,0.3596	-2649.44
0.7577,0.2423	-2648.68
0.5274,0.4726	-2650.30
0.5496,0.4504	-2650.22
0.8037,0.1963	-2644.36
0.7869,0.2131	-2641.61
0.6373,0.3627	-2648.29
0.7718,0.2282	-2646.58
0.5033,0.4967	-2650.66
0.5408,0.4592	-2650.73
0.7708,0.2292	-2645.36
0.8020,0.1980	-2647.14
0.6395,0.3605	-2648.86
0.7419,0.2581	-2643.09
0.4969,0.5031	-2650.57
0.5070,0.4930	-2650.65
0.7859,0.2141	-2645.51
0.7759,0.2241	-2650.37
0.6040,0.3960	-2649.28
0.7536,0.2464	-2646.36
0.4687,0.5313	-2650.86
0.5205,0.4795	-2650.20
0.7865,0.2135	-2641.61
0.6922,0.3078	-2647.76
0.6322,0.3678	-2647.75
0.7315,0.2685	-2650.20
0.4789,0.5211	-2650.41
0.5321,0.4679	-2649.76
0.7598,0.2402	-2647.58
0.6801,0.3199	-2646.19
0.6503,0.3497	-2652.02
0.7387,0.2613	-2653.51
0.5035,0.4965	-2650.68
0.5251,0.4749	-2650.52
0.7402,0.2598	-2647.29
0.7279,0.2721	-2645.19
0.5943,0.4057	-2647.76
0.7236,0.2764	-2649.04
0.5450,0.4550	-2650.22
0.5474,0.4526	-2650.03
0.7381,0.2619	-2644.16
0.7449,0.2551	-2645.21
0.5365,0.4635	-2650.98
0.6843,0.3157	-2651.59
0.5496,0.4504	-2650.61
0.5519,0.4481	-2649.80
0.7705,0.2295	-2650.20
0.6919,0.3081	-2647.76
0.5436,0.4564	-2649.88
0.6848,0.3152	-2646.17
0.5270,0.4730	-2650.31
0.5611,0.4389	-2649.73
0.7913,0.2087	-2653.58
0.6089,0.3911	-2650.61
0.5701,0.4299	-2649.40
0.6558,0.3442	-2647.66
0.4751,0.5249	-2650.48
0.5502,0.4498	-2649.81
0.7679,0.2321	-2641.74
0.6131,0.3869	-2648.37
0.5265,0.4735	-2650.52
0.6169,0.3831	-2650.73
0.4706,0.5294	-2650.25
0.5461,0.4539	-2650.59
0.7656,0.2344	-2641.77
0.5342,0.4658	-2650.81
0.5720,0.4280	-2650.26
0.6171,0.3829	-2648.82
0.4338,0.5662	-2652.36
0.5704,0.4296	-2650.82
0.7239,0.2761	-2646.16
0.4276,0.5724	-2652.03
0.6627,0.3373	-2649.69
0.5968,0.4032	-2648.10
0.4359,0.5641	-2652.02
0.5787,0.4213	-2650.62
0.7013,0.2987	-2648.69
0.4769,0.5231	-2650.95
0.7204,0.2796	-2648.04
0.5486,0.4514	-2651.58
0.4364,0.5636	-2650.47
0.5598,0.4402	-2650.94
0.6914,0.3086	-2650.18
0.4205,0.5795	-2651.95
0.7221,0.2779	-2643.28
0.5748,0.4252	-2649.97
0.4191,0.5809	-2650.69
0.5284,0.4716	-2650.64
0.6696,0.3304	-2645.55
0.4253,0.5747	-2651.50
0.6128,0.3872	-2650.67
0.5523,0.4477	-2650.01
0.4333,0.5667	-2651.30
0.4732,0.5268	-2650.70
0.6766,0.3234	-2649.16
0.4108,0.5892	-2651.93
0.5757,0.4243	-2649.36
0.5993,0.4007	-2650.49
0.4688,0.5312	-2651.11
0.4543,0.5457	-2649.81
0.6923,0.3077	-2647.76
0.3888,0.6112	-2649.16
0.6087,0.3913	-2648.84
0.5856,0.4144	-2648.27
0.4266,0.5734	-2652.06
0.4497,0.5503	-2651.39
0.6769,0.3231	-2648.43
0.4345,0.5655	-2651.80
0.5572,0.4428	-2651.82
0.6859,0.3141	-2649.29
0.3963,0.6037	-2652.46
0.4702,0.5298	-2650.60
0.7071,0.2929	-2648.77
0.4424,0.5576	-2651.11
0.5202,0.4798	-2650.69
0.7260,0.2740	-2646.16
0.4635,0.5365	-2651.52
0.4095,0.5905	-2652.34
0.7134,0.2866	-2645.22
0.4575,0.5425	-2650.18
0.5179,0.4821	-2650.67
0.7209,0.2791	-2646.15
0.4634,0.5366	-2650.06
0.3769,0.6231	-2652.34
0.7169,0.2831	-2648.92
0.4335,0.5665	-2649.96
0.5406,0.4594	-2650.56
0.6441,0.3559	-2647.69
0.4695,0.5305	-2650.49
0.4525,0.5475	-2650.56
0.7366,0.2634	-2648.28
0.4289,0.5711	-2649.12
0.4888,0.5112	-2650.53
0.5983,0.4017	-2648.48
0.4511,0.5489	-2650.57
0.4132,0.5868	-2651.15
0.7328,0.2672	-2646.20
0.4654,0.5346	-2651.19
0.5254,0.4746	-2650.83
0.5155,0.4845	-2650.47
0.4435,0.5565	-2649.28
0.3779,0.6221	-2652.29
0.7161,0.2839	-2651.68
