#isoforms=['ENSG00000101294.SE.1.A.up_ENSG00000101294.SE.1.A.SE1_ENSG00000101294.SE.1.A.dn','ENSG00000101294.SE.1.B.up_ENSG00000101294.SE.1.B.dn']	exon_lens=('ENSG00000101294.SE.1.A.up',99),('ENSG00000101294.SE.1.A.SE1',376),('ENSG00000101294.SE.1.A.dn',89),('ENSG00000101294.SE.1.B.up',99),('ENSG00000101294.SE.1.B.dn',89)	iters=5000	burn_in=500	lag=10	percent_accept=97.91	proposal_type=drift	counts=(0,0):565,(1,0):147	assigned_counts=0:147	chrom=chr20	strand=+	mRNA_starts=31527484,31527484	mRNA_ends=31545035,31545035
sampled_psi	log_score
0.9351,0.0649	-904.49
0.9429,0.0571	-904.24
0.8886,0.1114	-906.02
0.9318,0.0682	-904.59
0.9690,0.0310	-903.45
0.9611,0.0389	-903.69
0.9500,0.0500	-904.02
0.9372,0.0628	-904.42
0.8846,0.1154	-906.15
0.9321,0.0679	-904.58
0.9715,0.0285	-903.38
0.9548,0.0452	-903.88
0.9538,0.0462	-903.91
0.9377,0.0623	-904.40
0.8850,0.1150	-906.14
0.9493,0.0507	-904.04
0.9744,0.0256	-903.29
0.9619,0.0381	-903.66
0.9590,0.0410	-903.75
0.9273,0.0727	-904.73
0.9090,0.0910	-905.33
0.9481,0.0519	-904.08
0.9753,0.0247	-903.27
0.9653,0.0347	-903.56
0.9553,0.0447	-903.86
0.9271,0.0729	-904.74
0.9253,0.0747	-904.80
0.9493,0.0507	-904.05
0.9723,0.0277	-903.36
0.9707,0.0293	-903.40
0.9647,0.0353	-903.58
0.9207,0.0793	-904.94
0.9272,0.0728	-904.74
0.9637,0.0363	-903.61
0.9665,0.0335	-903.53
0.9745,0.0255	-903.29
0.9676,0.0324	-903.49
0.9378,0.0622	-904.40
0.9336,0.0664	-904.53
0.9483,0.0517	-904.07
0.9695,0.0305	-903.44
0.9728,0.0272	-903.34
0.9640,0.0360	-903.60
0.9317,0.0683	-904.59
0.9466,0.0534	-904.13
0.9569,0.0431	-903.81
0.9664,0.0336	-903.53
0.9739,0.0261	-903.31
0.9628,0.0372	-903.64
0.9379,0.0621	-904.40
0.9642,0.0358	-903.60
0.9691,0.0309	-903.45
0.9606,0.0394	-903.70
0.9707,0.0293	-903.40
0.9575,0.0425	-903.80
0.9344,0.0656	-904.51
0.9628,0.0372	-903.64
0.9693,0.0307	-903.44
0.9663,0.0337	-903.53
0.9726,0.0274	-903.35
0.9599,0.0401	-903.72
0.9206,0.0794	-904.95
0.9703,0.0297	-903.41
0.9658,0.0342	-903.55
0.9583,0.0417	-903.77
0.9826,0.0174	-903.06
0.9587,0.0413	-903.76
0.9199,0.0801	-904.97
0.9746,0.0254	-903.29
0.9724,0.0276	-903.35
0.9675,0.0325	-903.50
0.9815,0.0185	-903.09
0.9570,0.0430	-903.81
0.9279,0.0721	-904.71
0.9692,0.0308	-903.45
0.9688,0.0312	-903.46
0.9657,0.0343	-903.55
0.9768,0.0232	-903.22
0.9539,0.0461	-903.90
0.9080,0.0920	-905.36
0.9718,0.0282	-903.37
0.9690,0.0310	-903.45
0.9597,0.0403	-903.73
0.9754,0.0246	-903.27
0.9560,0.0440	-903.84
0.9135,0.0865	-905.18
0.9684,0.0316	-903.47
0.9657,0.0343	-903.55
0.9605,0.0395	-903.71
0.9716,0.0284	-903.38
0.9618,0.0382	-903.67
0.9295,0.0705	-904.66
0.9644,0.0356	-903.59
0.9734,0.0266	-903.32
0.9596,0.0404	-903.73
0.9715,0.0285	-903.38
0.9603,0.0397	-903.71
0.9381,0.0619	-904.39
0.9599,0.0401	-903.72
0.9744,0.0256	-903.29
0.9596,0.0404	-903.73
0.9764,0.0236	-903.24
0.9545,0.0455	-903.89
0.9512,0.0488	-903.99
0.9525,0.0475	-903.95
0.9709,0.0291	-903.40
0.9620,0.0380	-903.66
0.9782,0.0218	-903.18
0.9542,0.0458	-903.89
0.9478,0.0522	-904.09
0.9513,0.0487	-903.98
0.9632,0.0368	-903.62
0.9546,0.0454	-903.88
0.9659,0.0341	-903.54
0.9527,0.0473	-903.94
0.9424,0.0576	-904.26
0.9608,0.0392	-903.69
0.9673,0.0327	-903.50
0.9528,0.0472	-903.94
0.9683,0.0317	-903.47
0.9513,0.0487	-903.98
0.9443,0.0557	-904.20
0.9643,0.0357	-903.59
0.9573,0.0427	-903.80
0.9540,0.0460	-903.90
0.9729,0.0271	-903.34
0.9463,0.0537	-904.14
0.9443,0.0557	-904.20
0.9643,0.0357	-903.59
0.9552,0.0448	-903.87
0.9488,0.0512	-904.06
0.9722,0.0278	-903.36
0.9362,0.0638	-904.45
0.9407,0.0593	-904.31
0.9627,0.0373	-903.64
0.9584,0.0416	-903.77
0.9453,0.0547	-904.17
0.9711,0.0289	-903.39
0.9429,0.0571	-904.24
0.9487,0.0513	-904.06
0.9634,0.0366	-903.62
0.9576,0.0424	-903.79
0.9578,0.0422	-903.79
0.9722,0.0278	-903.36
0.9557,0.0443	-903.85
0.9564,0.0436	-903.83
0.9676,0.0324	-903.49
0.9610,0.0390	-903.69
0.9622,0.0378	-903.65
0.9698,0.0302	-903.43
0.9502,0.0498	-904.02
0.9475,0.0525	-904.10
0.9650,0.0350	-903.57
0.9677,0.0323	-903.49
0.9597,0.0403	-903.73
0.9770,0.0230	-903.22
0.9539,0.0461	-903.90
0.9515,0.0485	-903.98
0.9658,0.0342	-903.55
0.9664,0.0336	-903.53
0.9547,0.0453	-903.88
0.9717,0.0283	-903.37
0.9540,0.0460	-903.90
0.9544,0.0456	-903.89
0.9683,0.0317	-903.47
0.9587,0.0413	-903.76
0.9599,0.0401	-903.72
0.9732,0.0268	-903.33
0.9533,0.0467	-903.92
0.9408,0.0592	-904.31
0.9621,0.0379	-903.66
0.9690,0.0310	-903.45
0.9644,0.0356	-903.59
0.9724,0.0276	-903.35
0.9454,0.0546	-904.16
0.9369,0.0631	-904.43
0.9564,0.0436	-903.83
0.9709,0.0291	-903.40
0.9668,0.0332	-903.52
0.9717,0.0283	-903.37
0.9480,0.0520	-904.08
0.9246,0.0754	-904.82
0.9491,0.0509	-904.05
0.9642,0.0358	-903.59
0.9638,0.0362	-903.61
0.9621,0.0379	-903.66
0.9409,0.0591	-904.30
0.9422,0.0578	-904.26
0.9490,0.0510	-904.05
0.9667,0.0333	-903.52
0.9575,0.0425	-903.80
0.9580,0.0420	-903.78
0.9269,0.0731	-904.74
0.9464,0.0536	-904.13
0.9364,0.0636	-904.44
0.9719,0.0281	-903.37
0.9556,0.0444	-903.85
0.9623,0.0377	-903.65
0.9313,0.0687	-904.60
0.9388,0.0612	-904.37
0.9381,0.0619	-904.39
0.9741,0.0259	-903.30
0.9509,0.0491	-903.99
0.9657,0.0343	-903.55
0.9418,0.0582	-904.27
0.9347,0.0653	-904.50
0.9348,0.0652	-904.49
0.9688,0.0312	-903.46
0.9497,0.0503	-904.03
0.9598,0.0402	-903.73
0.9456,0.0544	-904.16
0.9325,0.0675	-904.57
0.9423,0.0577	-904.26
0.9678,0.0322	-903.49
0.9518,0.0482	-903.97
0.9538,0.0462	-903.91
0.9548,0.0452	-903.88
0.9290,0.0710	-904.68
0.9467,0.0533	-904.13
0.9618,0.0382	-903.67
0.9534,0.0466	-903.92
0.9575,0.0425	-903.79
0.9509,0.0491	-904.00
0.9228,0.0772	-904.88
0.9423,0.0577	-904.26
0.9649,0.0351	-903.57
0.9604,0.0396	-903.71
0.9600,0.0400	-903.72
0.9537,0.0463	-903.91
0.9093,0.0907	-905.32
0.9358,0.0642	-904.46
0.9645,0.0355	-903.58
0.9656,0.0344	-903.55
0.9552,0.0448	-903.87
0.9526,0.0474	-903.94
0.9152,0.0848	-905.13
0.9446,0.0554	-904.19
0.9674,0.0326	-903.50
0.9730,0.0270	-903.34
0.9540,0.0460	-903.90
0.9589,0.0411	-903.75
0.9366,0.0634	-904.44
0.9458,0.0542	-904.15
0.9738,0.0262	-903.31
0.9591,0.0409	-903.75
0.9587,0.0413	-903.76
0.9593,0.0407	-903.74
0.9472,0.0528	-904.11
0.9476,0.0524	-904.10
0.9768,0.0232	-903.22
0.9598,0.0402	-903.73
0.9558,0.0442	-903.85
0.9589,0.0411	-903.75
0.9574,0.0426	-903.80
0.9587,0.0413	-903.76
0.9767,0.0233	-903.23
0.9600,0.0400	-903.72
0.9540,0.0460	-903.90
0.9611,0.0389	-903.69
0.9546,0.0454	-903.88
0.9464,0.0536	-904.13
0.9691,0.0309	-903.45
0.9547,0.0453	-903.88
0.9548,0.0452	-903.88
0.9602,0.0398	-903.72
0.9610,0.0390	-903.69
0.9508,0.0492	-904.00
0.9543,0.0457	-903.89
0.9544,0.0456	-903.89
0.9638,0.0362	-903.61
0.9563,0.0437	-903.83
0.9511,0.0489	-903.99
0.9513,0.0487	-903.98
0.9480,0.0520	-904.09
0.9574,0.0426	-903.80
0.9628,0.0372	-903.63
0.9488,0.0512	-904.06
0.9601,0.0399	-903.72
0.9576,0.0424	-903.79
0.9525,0.0475	-903.95
0.9649,0.0351	-903.57
0.9688,0.0312	-903.46
0.9413,0.0587	-904.29
0.9585,0.0415	-903.76
0.9615,0.0385	-903.67
0.9465,0.0535	-904.13
0.9685,0.0315	-903.47
0.9685,0.0315	-903.47
0.9399,0.0601	-904.34
0.9525,0.0475	-903.95
0.9639,0.0361	-903.60
0.9346,0.0654	-904.50
0.9747,0.0253	-903.28
0.9740,0.0260	-903.30
0.9253,0.0747	-904.80
0.9577,0.0423	-903.79
0.9598,0.0402	-903.73
0.9491,0.0509	-904.05
0.9761,0.0239	-903.24
0.9651,0.0349	-903.57
0.9346,0.0654	-904.50
0.9547,0.0453	-903.88
0.9708,0.0292	-903.40
0.9485,0.0515	-904.07
0.9757,0.0243	-903.26
0.9736,0.0264	-903.32
0.9401,0.0599	-904.33
0.9558,0.0442	-903.85
0.9761,0.0239	-903.24
0.9512,0.0488	-903.99
0.9723,0.0277	-903.36
0.9764,0.0236	-903.23
0.9214,0.0786	-904.92
0.9440,0.0560	-904.21
0.9766,0.0234	-903.23
0.9543,0.0457	-903.89
0.9760,0.0240	-903.25
0.9756,0.0244	-903.26
0.9066,0.0934	-905.41
0.9489,0.0511	-904.06
0.9771,0.0229	-903.21
0.9521,0.0479	-903.96
0.9736,0.0264	-903.32
0.9790,0.0210	-903.16
0.8883,0.1117	-906.03
0.9589,0.0411	-903.75
0.9663,0.0337	-903.53
0.9428,0.0572	-904.25
0.9702,0.0298	-903.42
0.9813,0.0187	-903.09
0.8574,0.1426	-907.13
0.9667,0.0333	-903.52
0.9657,0.0343	-903.55
0.9576,0.0424	-903.79
0.9702,0.0298	-903.42
0.9830,0.0170	-903.04
0.8474,0.1526	-907.50
0.9717,0.0283	-903.37
0.9620,0.0380	-903.66
0.9521,0.0479	-903.96
0.9572,0.0428	-903.81
0.9849,0.0151	-902.99
0.8479,0.1521	-907.48
0.9685,0.0315	-903.47
0.9590,0.0410	-903.75
0.9559,0.0441	-903.84
0.9490,0.0510	-904.05
0.9858,0.0142	-902.96
0.8367,0.1633	-907.91
0.9720,0.0280	-903.36
0.9516,0.0484	-903.97
0.9481,0.0519	-904.08
0.9490,0.0510	-904.05
0.9829,0.0171	-903.05
0.8733,0.1267	-906.55
0.9696,0.0304	-903.43
0.9392,0.0608	-904.36
0.9338,0.0662	-904.53
0.9552,0.0448	-903.86
0.9811,0.0189	-903.10
0.8959,0.1041	-905.77
0.9643,0.0357	-903.59
0.9359,0.0641	-904.46
0.9462,0.0538	-904.14
0.9600,0.0400	-903.72
0.9826,0.0174	-903.06
0.9165,0.0835	-905.08
0.9644,0.0356	-903.59
0.9474,0.0526	-904.10
0.9476,0.0524	-904.10
0.9638,0.0362	-903.61
0.9857,0.0143	-902.97
0.9152,0.0848	-905.12
0.9660,0.0340	-903.54
0.9499,0.0501	-904.03
0.9421,0.0579	-904.27
0.9722,0.0278	-903.36
0.9862,0.0138	-902.95
0.9053,0.0947	-905.45
0.9704,0.0296	-903.41
0.9485,0.0515	-904.07
0.9533,0.0467	-903.92
0.9712,0.0288	-903.39
0.9872,0.0128	-902.92
0.9066,0.0934	-905.41
0.9731,0.0269	-903.33
0.9593,0.0407	-903.74
0.9510,0.0490	-903.99
0.9728,0.0272	-903.34
0.9890,0.0110	-902.87
0.8986,0.1014	-905.67
0.9702,0.0298	-903.42
0.9541,0.0459	-903.90
0.9511,0.0489	-903.99
0.9664,0.0336	-903.53
0.9881,0.0119	-902.90
0.8928,0.1072	-905.87
0.9672,0.0328	-903.50
0.9657,0.0343	-903.55
0.9541,0.0459	-903.90
0.9717,0.0283	-903.37
0.9895,0.0105	-902.86
0.8984,0.1016	-905.68
0.9612,0.0388	-903.68
0.9666,0.0334	-903.52
0.9557,0.0443	-903.85
0.9758,0.0242	-903.25
0.9915,0.0085	-902.80
0.8991,0.1009	-905.66
0.9629,0.0371	-903.63
0.9617,0.0383	-903.67
0.9563,0.0437	-903.83
0.9775,0.0225	-903.20
0.9922,0.0078	-902.78
0.8794,0.1206	-906.34
0.9519,0.0481	-903.96
0.9646,0.0354	-903.58
0.9640,0.0360	-903.60
0.9752,0.0248	-903.27
0.9923,0.0077	-902.78
0.8794,0.1206	-906.34
0.9608,0.0392	-903.70
0.9599,0.0401	-903.72
0.9706,0.0294	-903.40
0.9654,0.0346	-903.56
0.9927,0.0073	-902.77
0.8794,0.1206	-906.34
0.9574,0.0426	-903.80
0.9614,0.0386	-903.68
0.9650,0.0350	-903.57
0.9662,0.0338	-903.53
0.9924,0.0076	-902.78
0.8843,0.1157	-906.17
0.9664,0.0336	-903.53
0.9574,0.0426	-903.80
0.9629,0.0371	-903.63
0.9710,0.0290	-903.39
0.9917,0.0083	-902.80
0.8883,0.1117	-906.03
0.9701,0.0299	-903.42
0.9634,0.0366	-903.62
0.9733,0.0267	-903.32
0.9644,0.0356	-903.59
0.9898,0.0102	-902.85
0.8850,0.1150	-906.14
0.9664,0.0336	-903.53
0.9452,0.0548	-904.17
0.9744,0.0256	-903.29
0.9697,0.0303	-903.43
0.9893,0.0107	-902.86
0.8952,0.1048	-905.79
0.9756,0.0244	-903.26
0.9419,0.0581	-904.27
0.9784,0.0216	-903.18
0.9673,0.0327	-903.50
0.9876,0.0124	-902.91
0.8914,0.1086	-905.92
0.9723,0.0277	-903.35
0.9494,0.0506	-904.04
0.9823,0.0177	-903.06
0.9662,0.0338	-903.53
0.9871,0.0129	-902.93
0.9284,0.0716	-904.70
0.9729,0.0271	-903.34
0.9511,0.0489	-903.99
0.9763,0.0237	-903.24
0.9677,0.0323	-903.49
0.9869,0.0131	-902.93
0.9384,0.0616	-904.38
0.9728,0.0272	-903.34
0.9554,0.0446	-903.86
0.9715,0.0285	-903.38
0.9594,0.0406	-903.74
0.9825,0.0175	-903.06
0.9341,0.0659	-904.52
0.9702,0.0298	-903.42
0.9696,0.0304	-903.43
0.9675,0.0325	-903.50
0.9540,0.0460	-903.90
0.9838,0.0162	-903.02
0.9419,0.0581	-904.27
0.9722,0.0278	-903.36
0.9674,0.0326	-903.50
0.9713,0.0287	-903.38
0.9546,0.0454	-903.88
0.9792,0.0208	-903.15
0.9402,0.0598	-904.33
0.9661,0.0339	-903.54
0.9643,0.0357	-903.59
0.9681,0.0319	-903.48
0.9466,0.0534	-904.13
0.9804,0.0196	-903.12
0.9322,0.0678	-904.58
0.9666,0.0334	-903.52
0.9672,0.0328	-903.50
0.9740,0.0260	-903.31
0.9455,0.0545	-904.16
0.9836,0.0164	-903.03
0.9181,0.0819	-905.03
0.9714,0.0286	-903.38
0.9652,0.0348	-903.57
0.9773,0.0227	-903.21
0.9418,0.0582	-904.28
0.9823,0.0177	-903.06
0.9058,0.0942	-905.43
0.9701,0.0299	-903.42
0.9704,0.0296	-903.41
0.9823,0.0177	-903.06
0.9400,0.0600	-904.33
0.9804,0.0196	-903.12
0.9066,0.0934	-905.41
0.9642,0.0358	-903.60
0.9731,0.0269	-903.33
0.9846,0.0154	-903.00
0.9343,0.0657	-904.51
0.9818,0.0182	-903.08
0.9048,0.0952	-905.47
0.9467,0.0533	-904.13
0.9719,0.0281	-903.37
0.9791,0.0209	-903.16
0.9385,0.0615	-904.38
0.9828,0.0172	-903.05
0.8899,0.1101	-905.97
0.9429,0.0571	-904.24
0.9807,0.0193	-903.11
0.9796,0.0204	-903.14
0.9577,0.0423	-903.79
0.9811,0.0189	-903.10
0.9097,0.0903	-905.31
0.9574,0.0426	-903.80
0.9726,0.0274	-903.35
0.9828,0.0172	-903.05
0.9560,0.0440	-903.84
0.9800,0.0200	-903.13
0.9156,0.0844	-905.11
0.9628,0.0372	-903.64
0.9628,0.0372	-903.63
0.9828,0.0172	-903.05
0.9600,0.0400	-903.72
0.9794,0.0206	-903.15
0.9229,0.0771	-904.87
0.9620,0.0380	-903.66
0.9700,0.0300	-903.42
0.9871,0.0129	-902.93
0.9637,0.0363	-903.61
0.9762,0.0238	-903.24
0.9425,0.0575	-904.25
0.9493,0.0507	-904.05
0.9736,0.0264	-903.32
0.9887,0.0113	-902.88
0.9556,0.0444	-903.85
0.9767,0.0233	-903.23
0.9425,0.0575	-904.25
0.9444,0.0556	-904.20
0.9758,0.0242	-903.25
0.9871,0.0129	-902.93
0.9631,0.0369	-903.63
0.9793,0.0207	-903.15
0.9400,0.0600	-904.33
0.9463,0.0537	-904.14
0.9721,0.0279	-903.36
0.9858,0.0142	-902.96
0.9592,0.0408	-903.74
0.9808,0.0192	-903.11
0.9379,0.0621	-904.40
0.9556,0.0444	-903.85
0.9637,0.0363	-903.61
0.9853,0.0147	-902.98
0.9520,0.0480	-903.96
0.9836,0.0164	-903.03
0.9336,0.0664	-904.53
0.9683,0.0317	-903.47
0.9646,0.0354	-903.58
0.9793,0.0207	-903.15
0.9644,0.0356	-903.59
0.9837,0.0163	-903.03
0.9416,0.0584	-904.28
0.9689,0.0311	-903.46
0.9695,0.0305	-903.44
0.9744,0.0256	-903.29
0.9721,0.0279	-903.36
0.9843,0.0157	-903.01
0.9391,0.0609	-904.36
0.9715,0.0285	-903.38
0.9629,0.0371	-903.63
0.9803,0.0197	-903.12
0.9711,0.0289	-903.39
0.9849,0.0151	-902.99
0.9510,0.0490	-903.99
0.9640,0.0360	-903.60
0.9680,0.0320	-903.48
0.9791,0.0209	-903.16
0.9720,0.0280	-903.36
0.9841,0.0159	-903.01
0.9335,0.0665	-904.54
0.9584,0.0416	-903.77
0.9740,0.0260	-903.31
0.9787,0.0213	-903.17
0.9662,0.0338	-903.53
0.9848,0.0152	-902.99
0.9446,0.0554	-904.19
0.9558,0.0442	-903.85
0.9763,0.0237	-903.24
0.9779,0.0221	-903.19
0.9704,0.0296	-903.41
0.9843,0.0157	-903.01
0.9490,0.0510	-904.05
0.9559,0.0441	-903.84
0.9753,0.0247	-903.27
0.9766,0.0234	-903.23
0.9680,0.0320	-903.48
0.9796,0.0204	-903.14
0.9539,0.0461	-903.90
0.9549,0.0451	-903.87
0.9768,0.0232	-903.22
0.9712,0.0288	-903.39
0.9637,0.0363	-903.61
0.9832,0.0168	-903.04
0.9632,0.0368	-903.63
0.9494,0.0506	-904.04
0.9759,0.0241	-903.25
0.9700,0.0300	-903.42
0.9587,0.0413	-903.76
0.9818,0.0182	-903.08
0.9635,0.0365	-903.62
0.9465,0.0535	-904.13
0.9801,0.0199	-903.13
0.9702,0.0298	-903.42
0.9653,0.0347	-903.56
0.9762,0.0238	-903.24
0.9679,0.0321	-903.49
0.9440,0.0560	-904.21
0.9725,0.0275	-903.35
0.9654,0.0346	-903.56
0.9702,0.0298	-903.42
0.9779,0.0221	-903.19
0.9612,0.0388	-903.68
0.9421,0.0579	-904.27
0.9713,0.0287	-903.39
0.9682,0.0318	-903.48
0.9726,0.0274	-903.35
0.9697,0.0303	-903.43
0.9645,0.0355	-903.59
0.9411,0.0589	-904.30
0.9723,0.0277	-903.36
0.9684,0.0316	-903.47
0.9736,0.0264	-903.32
0.9714,0.0286	-903.38
0.9679,0.0321	-903.48
0.9429,0.0571	-904.24
0.9751,0.0249	-903.27
0.9688,0.0312	-903.46
0.9740,0.0260	-903.30
0.9737,0.0263	-903.31
0.9640,0.0360	-903.60
0.9485,0.0515	-904.07
0.9757,0.0243	-903.26
0.9702,0.0298	-903.42
0.9711,0.0289	-903.39
0.9722,0.0278	-903.36
0.9619,0.0381	-903.66
0.9479,0.0521	-904.09
0.9798,0.0202	-903.14
0.9755,0.0245	-903.26
0.9730,0.0270	-903.34
0.9694,0.0306	-903.44
0.9595,0.0405	-903.73
0.9579,0.0421	-903.78
0.9800,0.0200	-903.13
0.9688,0.0312	-903.46
0.9650,0.0350	-903.57
0.9763,0.0237	-903.24
0.9703,0.0297	-903.42
0.9521,0.0479	-903.96
0.9845,0.0155	-903.00
0.9655,0.0345	-903.56
0.9674,0.0326	-903.50
0.9732,0.0268	-903.33
0.9648,0.0352	-903.58
0.9413,0.0587	-904.29
0.9832,0.0168	-903.04
0.9623,0.0377	-903.65
0.9684,0.0316	-903.47
0.9705,0.0295	-903.41
0.9617,0.0383	-903.67
0.9117,0.0883	-905.24
0.9794,0.0206	-903.15
0.9645,0.0355	-903.59
0.9551,0.0449	-903.87
0.9726,0.0274	-903.35
0.9541,0.0459	-903.90
0.9229,0.0771	-904.87
0.9791,0.0209	-903.16
0.9597,0.0403	-903.73
0.9524,0.0476	-903.95
0.9735,0.0265	-903.32
0.9457,0.0543	-904.15
0.9456,0.0544	-904.16
0.9767,0.0233	-903.23
0.9663,0.0337	-903.53
0.9357,0.0643	-904.47
0.9737,0.0263	-903.31
0.9408,0.0592	-904.31
0.9516,0.0484	-903.97
0.9709,0.0291	-903.40
0.9666,0.0334	-903.52
0.9284,0.0716	-904.70
0.9744,0.0256	-903.29
0.9401,0.0599	-904.33
0.9594,0.0406	-903.74
0.9687,0.0313	-903.46
0.9659,0.0341	-903.54
0.9455,0.0545	-904.16
0.9734,0.0266	-903.32
0.9241,0.0759	-904.84
0.9603,0.0397	-903.71
0.9773,0.0227	-903.21
0.9697,0.0303	-903.43
0.9396,0.0604	-904.35
0.9719,0.0281	-903.37
0.9456,0.0544	-904.16
0.9512,0.0488	-903.99
0.9734,0.0266	-903.32
0.9711,0.0289	-903.39
0.9427,0.0573	-904.25
0.9667,0.0333	-903.52
0.9438,0.0562	-904.21
0.9504,0.0496	-904.01
0.9715,0.0285	-903.38
0.9726,0.0274	-903.35
0.9462,0.0538	-904.14
0.9681,0.0319	-903.48
0.9512,0.0488	-903.99
0.9427,0.0573	-904.25
0.9753,0.0247	-903.27
0.9686,0.0314	-903.46
0.9327,0.0673	-904.56
0.9731,0.0269	-903.33
0.9514,0.0486	-903.98
0.9383,0.0617	-904.39
0.9821,0.0179	-903.07
0.9650,0.0350	-903.57
0.9303,0.0697	-904.64
0.9766,0.0234	-903.23
0.9513,0.0487	-903.98
0.9362,0.0638	-904.45
0.9831,0.0169	-903.04
0.9660,0.0340	-903.54
0.9224,0.0776	-904.89
0.9749,0.0251	-903.28
0.9324,0.0676	-904.57
0.9317,0.0683	-904.59
0.9832,0.0168	-903.04
0.9660,0.0340	-903.54
0.9193,0.0807	-904.99
0.9787,0.0213	-903.17
0.9274,0.0726	-904.73
0.9407,0.0593	-904.31
0.9833,0.0167	-903.04
0.9767,0.0233	-903.23
0.9274,0.0726	-904.73
0.9793,0.0207	-903.15
0.9363,0.0637	-904.45
0.9382,0.0618	-904.39
0.9843,0.0157	-903.01
0.9788,0.0212	-903.17
0.9348,0.0652	-904.49
0.9816,0.0184	-903.08
0.9446,0.0554	-904.19
0.9380,0.0620	-904.39
0.9796,0.0204	-903.14
0.9775,0.0225	-903.20
0.9246,0.0754	-904.82
0.9820,0.0180	-903.07
0.9563,0.0437	-903.83
0.9302,0.0698	-904.64
0.9784,0.0216	-903.18
0.9813,0.0187	-903.09
0.9188,0.0812	-905.01
0.9782,0.0218	-903.18
0.9609,0.0391	-903.69
0.9213,0.0787	-904.93
0.9774,0.0226	-903.21
0.9787,0.0213	-903.17
0.9165,0.0835	-905.08
0.9770,0.0230	-903.22
0.9715,0.0285	-903.38
0.8997,0.1003	-905.64
0.9738,0.0262	-903.31
0.9760,0.0240	-903.25
0.9141,0.0859	-905.16
0.9751,0.0249	-903.27
0.9688,0.0312	-903.46
0.9122,0.0878	-905.22
0.9757,0.0243	-903.26
0.9735,0.0265	-903.32
0.9406,0.0594	-904.31
0.9781,0.0219	-903.19
0.9712,0.0288	-903.39
0.9225,0.0775	-904.89
0.9768,0.0232	-903.22
0.9701,0.0299	-903.42
0.9281,0.0719	-904.71
0.9785,0.0215	-903.17
0.9710,0.0290	-903.39
0.9202,0.0798	-904.96
0.9763,0.0237	-903.24
0.9784,0.0216	-903.18
0.9249,0.0751	-904.81
0.9845,0.0155	-903.00
0.9767,0.0233	-903.23
0.9333,0.0667	-904.54
0.9718,0.0282	-903.37
0.9783,0.0217	-903.18
0.9090,0.0910	-905.33
0.9873,0.0127	-902.92
0.9795,0.0205	-903.14
0.9129,0.0871	-905.20
0.9739,0.0261	-903.31
0.9699,0.0301	-903.42
0.9060,0.0940	-905.43
0.9888,0.0112	-902.88
0.9754,0.0246	-903.26
0.8917,0.1083	-905.91
0.9686,0.0314	-903.46
0.9736,0.0264	-903.32
0.9178,0.0822	-905.04
0.9866,0.0134	-902.94
0.9726,0.0274	-903.35
0.8849,0.1151	-906.14
0.9682,0.0318	-903.48
0.9713,0.0287	-903.38
0.8938,0.1062	-905.84
0.9901,0.0099	-902.84
0.9773,0.0227	-903.21
0.8892,0.1108	-906.00
0.9697,0.0303	-903.43
0.9651,0.0349	-903.57
0.9108,0.0892	-905.27
0.9928,0.0072	-902.76
0.9793,0.0207	-903.15
0.8792,0.1208	-906.34
0.9700,0.0300	-903.42
0.9650,0.0350	-903.57
0.9191,0.0809	-905.00
0.9932,0.0068	-902.75
0.9792,0.0208	-903.16
0.8967,0.1033	-905.74
0.9709,0.0291	-903.40
0.9763,0.0237	-903.24
0.9292,0.0708	-904.67
0.9931,0.0069	-902.76
0.9758,0.0242	-903.25
0.8613,0.1387	-906.99
0.9661,0.0339	-903.54
0.9702,0.0298	-903.42
0.9246,0.0754	-904.82
0.9927,0.0073	-902.77
0.9712,0.0288	-903.39
0.8617,0.1383	-906.97
0.9670,0.0330	-903.51
0.9714,0.0286	-903.38
0.9206,0.0794	-904.95
0.9917,0.0083	-902.80
0.9734,0.0266	-903.32
0.8699,0.1301	-906.68
0.9726,0.0274	-903.35
0.9716,0.0284	-903.38
0.9242,0.0758	-904.83
0.9922,0.0078	-902.78
0.9692,0.0308	-903.45
0.8623,0.1377	-906.95
0.9751,0.0249	-903.27
0.9690,0.0310	-903.45
0.9361,0.0639	-904.45
0.9908,0.0092	-902.82
0.9681,0.0319	-903.48
0.8844,0.1156	-906.16
0.9761,0.0239	-903.25
0.9693,0.0307	-903.44
0.9297,0.0703	-904.66
0.9906,0.0094	-902.83
0.9642,0.0358	-903.59
0.8954,0.1046	-905.78
